'sample interval','SpO2','hr'
'1 sec','%','bpm'
0,94.00006104,94.00051881
1,95.00000000,94.00051881
2,95.00000000,95.00030519
3,95.00000000,97.00056459
4,95.00000000,97.00056459
5,95.00000000,98.00035096
6,95.00000000,94.00051881
7,95.00000000,89.00021363
8,95.00000000,87.00064089
9,95.00000000,87.00064089
10,95.00000000,87.00064089
11,95.00000000,91.00047304
12,95.00000000,94.00051881
13,95.00000000,94.00051881
14,95.00000000,97.00056459
15,95.00000000,98.00035096
16,95.00000000,98.00035096
17,95.00000000,98.00035096
18,95.00000000,98.00035096
19,95.00000000,95.00030519
20,95.00000000,93.00004578
21,95.00000000,91.00047304
22,95.00000000,91.00047304
23,95.00000000,91.00047304
24,95.00000000,91.00047304
25,95.00000000,89.00021363
26,95.00000000,87.00064089
27,95.00000000,86.00016785
28,95.00000000,86.00016785
29,95.00000000,87.00064089
30,95.00000000,86.00016785
31,95.00000000,86.00016785
32,95.00000000,85.00038148
33,95.00000000,86.00016785
34,95.00000000,87.00064089
35,95.00000000,88.00042726
36,95.00000000,89.00021363
37,95.00000000,89.00021363
38,95.00000000,90.00000000
39,95.00000000,89.00021363
40,95.00000000,89.00021363
41,95.00000000,90.00000000
42,95.00000000,93.00004578
43,95.00000000,96.00009156
44,95.00000000,98.00035096
45,95.00000000,101.00039674
46,95.00000000,102.00018311
47,95.00000000,101.00039674
48,95.00000000,97.00056459
49,95.00000000,96.00009156
50,95.00000000,94.00051881
51,95.00000000,93.00004578
52,95.00000000,93.00004578
53,95.00000000,94.00051881
54,95.00000000,94.00051881
55,95.00000000,95.00030519
56,95.00000000,96.00009156
57,95.00000000,96.00009156
58,95.00000000,96.00009156
59,95.00000000,95.00030519
60,95.00000000,94.00051881
61,95.00000000,93.00004578
62,95.00000000,93.00004578
63,95.00000000,92.00025941
64,95.00000000,91.00047304
65,95.00000000,91.00047304
66,95.00000000,91.00047304
67,95.00000000,91.00047304
68,95.00000000,91.00047304
69,95.00000000,89.00021363
70,95.00000000,89.00021363
71,95.00000000,88.00042726
72,95.00000000,89.00021363
73,95.00000000,88.00042726
74,95.00000000,89.00021363
75,95.00000000,88.00042726
76,95.00000000,91.00047304
77,95.00000000,91.00047304
78,95.00000000,93.00004578
79,95.00000000,92.00025941
80,95.00000000,91.00047304
81,95.00000000,87.00064089
82,95.00000000,86.00016785
83,95.00000000,86.00016785
84,95.00000000,86.00016785
85,95.00000000,87.00064089
86,95.00000000,87.00064089
87,95.00000000,88.00042726
88,95.00000000,88.00042726
89,95.00000000,89.00021363
90,95.00000000,88.00042726
91,95.00000000,87.00064089
92,95.00000000,87.00064089
93,95.00000000,88.00042726
94,95.00000000,88.00042726
95,95.00000000,87.00064089
96,95.00000000,87.00064089
97,95.00000000,87.00064089
98,95.00000000,88.00042726
99,95.00000000,88.00042726
100,95.00000000,88.00042726
101,95.00000000,87.00064089
102,95.00000000,87.00064089
103,95.00000000,86.00016785
104,95.00000000,86.00016785
105,95.00000000,86.00016785
106,95.00000000,87.00064089
107,95.00000000,89.00021363
108,95.00000000,90.00000000
109,95.00000000,91.00047304
110,95.00000000,90.00000000
111,95.00000000,89.00021363
112,95.00000000,89.00021363
113,95.00000000,91.00047304
114,95.00000000,91.00047304
115,95.00000000,91.00047304
116,95.00000000,92.00025941
117,95.00000000,91.00047304
118,95.00000000,90.00000000
119,95.00000000,88.00042726
120,95.00000000,87.00064089
121,95.00000000,86.00016785
122,95.00000000,86.00016785
123,95.00000000,86.00016785
124,95.00000000,88.00042726
125,95.00000000,88.00042726
126,95.00000000,88.00042726
127,95.00000000,89.00021363
128,95.00000000,88.00042726
129,95.00000000,88.00042726
130,95.00000000,88.00042726
131,95.00000000,87.00064089
132,95.00000000,87.00064089
133,95.00000000,87.00064089
134,95.00000000,87.00064089
135,95.00000000,87.00064089
136,95.00000000,88.00042726
137,95.00000000,88.00042726
138,95.00000000,88.00042726
139,95.00000000,87.00064089
140,95.00000000,86.00016785
141,95.00000000,86.00016785
142,95.00000000,85.00038148
143,95.00000000,85.00038148
144,95.00000000,85.00038148
145,95.00000000,86.00016785
146,95.00000000,86.00016785
147,95.00000000,87.00064089
148,95.00000000,89.00021363
149,95.00000000,89.00021363
150,95.00000000,90.00000000
151,95.00000000,89.00021363
152,95.00000000,88.00042726
153,95.00000000,88.00042726
154,95.00000000,87.00064089
155,95.00000000,87.00064089
156,94.00006104,90.00000000
157,94.00006104,90.00000000
158,94.00006104,90.00000000
159,94.00006104,91.00047304
160,94.00006104,91.00047304
161,95.00000000,90.00000000
162,95.00000000,91.00047304
163,95.00000000,91.00047304
164,95.00000000,90.00000000
165,95.00000000,90.00000000
166,95.00000000,90.00000000
167,95.00000000,90.00000000
168,95.00000000,90.00000000
169,95.00000000,90.00000000
170,95.00000000,91.00047304
171,95.00000000,91.00047304
172,95.00000000,91.00047304
173,95.00000000,92.00025941
174,95.00000000,92.00025941
175,95.00000000,92.00025941
176,95.00000000,92.00025941
177,95.00000000,94.00051881
178,95.00000000,94.00051881
179,95.00000000,94.00051881
180,95.00000000,94.00051881
181,95.00000000,94.00051881
182,95.00000000,94.00051881
183,95.00000000,93.00004578
184,95.00000000,93.00004578
185,95.00000000,92.00025941
186,95.00000000,92.00025941
187,95.00000000,92.00025941
188,95.00000000,93.00004578
189,95.00000000,93.00004578
190,95.00000000,93.00004578
191,95.00000000,92.00025941
192,95.00000000,92.00025941
193,95.00000000,92.00025941
194,95.00000000,92.00025941
195,95.00000000,92.00025941
196,95.00000000,92.00025941
197,95.00000000,92.00025941
198,95.00000000,93.00004578
199,95.00000000,93.00004578
200,95.00000000,93.00004578
201,95.00000000,94.00051881
202,95.00000000,94.00051881
203,95.00000000,94.00051881
204,95.00000000,93.00004578
205,95.00000000,93.00004578
206,95.00000000,92.00025941
207,95.00000000,92.00025941
208,95.00000000,92.00025941
209,95.00000000,93.00004578
210,95.00000000,93.00004578
211,95.00000000,93.00004578
212,95.00000000,94.00051881
213,95.00000000,95.00030519
214,95.00000000,95.00030519
215,95.00000000,95.00030519
216,95.00000000,93.00004578
217,95.00000000,93.00004578
218,95.00000000,92.00025941
219,95.00000000,92.00025941
220,95.00000000,92.00025941
221,95.00000000,92.00025941
222,95.00000000,92.00025941
223,95.00000000,93.00004578
224,95.00000000,93.00004578
225,95.00000000,94.00051881
226,95.00000000,95.00030519
227,95.00000000,94.00051881
228,95.00000000,93.00004578
229,95.00000000,93.00004578
230,95.00000000,92.00025941
231,95.00000000,92.00025941
232,95.00000000,93.00004578
233,95.00000000,94.00051881
234,95.00000000,94.00051881
235,95.00000000,95.00030519
236,95.00000000,96.00009156
237,95.00000000,97.00056459
238,95.00000000,97.00056459
239,95.00000000,96.00009156
240,95.00000000,96.00009156
241,95.00000000,94.00051881
242,95.00000000,94.00051881
243,95.00000000,94.00051881
244,95.00000000,94.00051881
245,95.00000000,94.00051881
246,95.00000000,95.00030519
247,95.00000000,95.00030519
248,95.00000000,95.00030519
249,95.00000000,94.00051881
250,95.00000000,94.00051881
251,95.00000000,93.00004578
252,95.00000000,93.00004578
253,95.00000000,93.00004578
254,95.00000000,93.00004578
255,95.00000000,92.00025941
256,95.00000000,92.00025941
257,95.00000000,93.00004578
258,95.00000000,94.00051881
259,95.00000000,94.00051881
260,95.00000000,95.00030519
261,95.00000000,96.00009156
262,95.00000000,96.00009156
263,95.00000000,94.00051881
264,95.00000000,91.00047304
265,95.00000000,90.00000000
266,95.00000000,88.00042726
267,95.00000000,87.00064089
268,95.00000000,89.00021363
269,95.00000000,91.00047304
270,95.00000000,93.00004578
271,95.00000000,93.00004578
272,95.00000000,92.00025941
273,95.00000000,90.00000000
274,95.00000000,88.00042726
275,95.00000000,88.00042726
276,95.00000000,88.00042726
277,96.00001526,90.00000000
278,95.00000000,92.00025941
279,95.00000000,92.00025941
280,95.00000000,93.00004578
281,95.00000000,92.00025941
282,95.00000000,89.00021363
283,95.00000000,88.00042726
284,95.00000000,86.00016785
285,95.00000000,84.00059511
286,95.00000000,84.00059511
287,95.00000000,86.00016785
288,95.00000000,87.00064089
289,95.00000000,89.00021363
290,95.00000000,92.00025941
291,95.00000000,92.00025941
292,95.00000000,93.00004578
293,95.00000000,93.00004578
294,95.00000000,92.00025941
295,95.00000000,92.00025941
296,95.00000000,91.00047304
297,95.00000000,91.00047304
298,95.00000000,90.00000000
299,95.00000000,90.00000000
300,95.00000000,90.00000000
301,96.00001526,100.00061037
302,96.00001526,100.00061037
303,96.99995422,100.00061037
304,96.99995422,100.00061037
305,96.99995422,100.00061037
306,96.99995422,100.00061037
307,96.99995422,100.00061037
308,96.99995422,104.00044252
309,96.99995422,104.00044252
310,96.99995422,104.00044252
311,96.99995422,105.99932859
312,96.99995422,106.99980163
313,96.99995422,106.99980163
314,96.99995422,106.99980163
315,96.99995422,106.99980163
316,96.99995422,106.99980163
317,96.99995422,108.99937437
318,96.99995422,110.99963378
319,96.99995422,111.99942015
320,96.99995422,111.99942015
321,96.99995422,109.99984741
322,97.99996948,107.99958800
323,97.99996948,105.99932859
324,97.99996948,105.99932859
325,97.99996948,105.99932859
326,96.99995422,108.99937437
327,97.99996948,108.99937437
328,97.99996948,110.99963378
329,96.99995422,109.99984741
330,96.99995422,110.99963378
331,96.99995422,111.99942015
332,96.99995422,111.99942015
333,96.99995422,110.99963378
334,96.99995422,108.99937437
335,96.99995422,108.99937437
336,96.00001526,107.99958800
337,96.00001526,107.99958800
338,96.00001526,109.99984741
339,96.00001526,110.99963378
340,95.00000000,111.99942015
341,95.00000000,113.99967956
342,95.00000000,113.99967956
343,95.00000000,114.99946593
344,95.00000000,113.99967956
345,95.00000000,112.99989319
346,95.00000000,112.99989319
347,95.00000000,112.99989319
348,95.00000000,112.99989319
349,95.00000000,112.99989319
350,95.00000000,113.99967956
351,95.00000000,115.99993896
352,95.00000000,115.99993896
353,95.00000000,117.99951170
354,95.00000000,119.99977111
355,95.00000000,119.99977111
356,95.00000000,117.99951170
357,95.00000000,114.99946593
358,95.00000000,112.99989319
359,95.00000000,109.99984741
360,95.00000000,108.99937437
361,95.00000000,108.99937437
362,95.00000000,108.99937437
363,95.00000000,108.99937437
364,95.00000000,108.99937437
365,95.00000000,109.99984741
366,95.00000000,109.99984741
367,95.00000000,111.99942015
368,95.00000000,111.99942015
369,95.00000000,112.99989319
370,95.00000000,112.99989319
371,95.00000000,112.99989319
372,95.00000000,112.99989319
373,95.00000000,112.99989319
374,95.00000000,112.99989319
375,95.00000000,112.99989319
376,95.00000000,112.99989319
377,95.00000000,111.99942015
378,95.00000000,109.99984741
379,96.00001526,109.99984741
380,96.00001526,109.99984741
381,96.00001526,109.99984741
382,96.00001526,109.99984741
383,96.00001526,109.99984741
384,96.00001526,109.99984741
385,96.00001526,109.99984741
386,96.00001526,109.99984741
387,96.00001526,107.99958800
388,96.00001526,107.99958800
389,96.00001526,106.99980163
390,95.00000000,104.00044252
391,95.00000000,103.00065615
392,95.00000000,101.00039674
393,95.00000000,101.00039674
394,95.00000000,101.00039674
395,95.00000000,101.00039674
396,95.00000000,101.00039674
397,95.00000000,100.00061037
398,95.00000000,100.00061037
399,95.00000000,98.00035096
400,95.00000000,98.00035096
401,95.00000000,98.00035096
402,95.00000000,99.00013733
403,95.00000000,99.00013733
404,95.00000000,99.00013733
405,95.00000000,98.00035096
406,95.00000000,98.00035096
407,95.00000000,98.00035096
408,95.00000000,98.00035096
409,95.00000000,98.00035096
410,95.00000000,98.00035096
411,95.00000000,98.00035096
412,95.00000000,99.00013733
413,95.00000000,99.00013733
414,95.00000000,99.00013733
415,95.00000000,99.00013733
416,95.00000000,99.00013733
417,95.00000000,100.00061037
418,95.00000000,100.00061037
419,95.00000000,100.00061037
420,95.00000000,100.00061037
421,95.00000000,100.00061037
422,95.00000000,100.00061037
423,95.00000000,100.00061037
424,95.00000000,102.00018311
425,95.00000000,103.00065615
426,95.00000000,103.00065615
427,95.00000000,104.99954222
428,95.00000000,104.99954222
429,95.00000000,104.99954222
430,95.00000000,104.00044252
431,95.00000000,103.00065615
432,95.00000000,99.00013733
433,95.00000000,99.00013733
434,95.00000000,99.00013733
435,95.00000000,100.00061037
436,95.00000000,102.00018311
437,95.00000000,104.00044252
438,95.00000000,102.00018311
439,95.00000000,100.00061037
440,95.00000000,107.99958800
441,95.00000000,107.99958800
442,95.00000000,107.99958800
443,95.00000000,107.99958800
444,95.00000000,107.99958800
445,95.00000000,107.99958800
446,95.00000000,107.99958800
447,95.00000000,108.99937437
448,95.00000000,110.99963378
449,95.00000000,110.99963378
450,95.00000000,110.99963378
451,95.00000000,110.99963378
452,95.00000000,110.99963378
453,95.00000000,110.99963378
454,95.00000000,111.99942015
455,95.00000000,111.99942015
456,95.00000000,113.99967956
457,95.00000000,113.99967956
458,95.00000000,114.99946593
459,95.00000000,114.99946593
460,95.00000000,114.99946593
461,95.00000000,114.99946593
462,95.00000000,114.99946593
463,95.00000000,114.99946593
464,95.00000000,114.99946593
465,95.00000000,117.99951170
466,95.00000000,119.99977111
467,95.00000000,122.99981689
468,95.00000000,126.99964904
469,95.00000000,126.99964904
470,95.00000000,126.99964904
471,95.00000000,126.99964904
472,95.00000000,126.99964904
473,95.00000000,125.99986267
474,95.00000000,118.99998474
475,95.00000000,114.99946593
476,95.00000000,114.99946593
477,95.00000000,114.99946593
478,95.00000000,114.99946593
479,95.00000000,115.99993896
480,95.00000000,115.99993896
481,95.00000000,115.99993896
482,95.00000000,115.99993896
483,95.00000000,118.99998474
484,95.00000000,119.99977111
485,95.00000000,119.99977111
486,95.00000000,119.99977111
487,95.00000000,119.99977111
488,95.00000000,119.99977111
489,95.00000000,119.99977111
490,95.00000000,119.99977111
491,94.00006104,118.99998474
492,94.00006104,115.99993896
493,94.00006104,115.99993896
494,94.00006104,115.99993896
495,94.00006104,115.99993896
496,94.00006104,112.99989319
497,94.00006104,110.99963378
498,94.00006104,110.99963378
499,94.00006104,110.99963378
500,94.00006104,110.99963378
501,94.00006104,110.99963378
502,94.00006104,110.99963378
503,94.00006104,110.99963378
504,94.00006104,110.99963378
505,94.00006104,109.99984741
506,94.00006104,109.99984741
507,94.00006104,109.99984741
508,94.00006104,109.99984741
509,94.00006104,109.99984741
510,94.00006104,109.99984741
511,94.00006104,109.99984741
512,94.00006104,109.99984741
513,94.00006104,109.99984741
514,94.00006104,109.99984741
515,94.00006104,110.99963378
516,94.00006104,110.99963378
517,94.00006104,107.99958800
518,94.00006104,107.99958800
519,94.00006104,107.99958800
520,94.00006104,107.99958800
521,94.00006104,107.99958800
522,94.00006104,107.99958800
523,94.00006104,108.99937437
524,94.00006104,108.99937437
525,94.00006104,108.99937437
526,94.00006104,108.99937437
527,94.00006104,108.99937437
528,94.00006104,109.99984741
529,94.00006104,109.99984741
530,94.00006104,109.99984741
531,94.00006104,109.99984741
532,94.00006104,109.99984741
533,94.00006104,109.99984741
534,94.00006104,110.99963378
535,94.00006104,110.99963378
536,94.00006104,110.99963378
537,94.00006104,111.99942015
538,94.00006104,111.99942015
539,94.00006104,111.99942015
540,94.00006104,111.99942015
541,94.00006104,111.99942015
542,94.00006104,111.99942015
543,94.00006104,111.99942015
544,94.00006104,111.99942015
545,94.00006104,111.99942015
546,94.00006104,111.99942015
547,94.00006104,112.99989319
548,94.00006104,112.99989319
549,94.00006104,110.99963378
550,94.00006104,110.99963378
551,94.00006104,109.99984741
552,94.00006104,106.99980163
553,94.00006104,106.99980163
554,94.00006104,106.99980163
555,94.00006104,104.99954222
556,94.00006104,104.00044252
557,95.00000000,104.00044252
558,95.00000000,104.00044252
559,95.00000000,104.99954222
560,95.00000000,104.00044252
561,95.00000000,104.00044252
562,95.00000000,104.00044252
563,95.00000000,104.00044252
564,95.00000000,104.00044252
565,95.00000000,104.00044252
566,95.00000000,104.00044252
567,95.00000000,104.00044252
568,95.00000000,103.00065615
569,95.00000000,103.00065615
570,95.00000000,100.00061037
571,95.00000000,100.00061037
572,95.00000000,105.99932859
573,95.00000000,105.99932859
574,95.00000000,105.99932859
575,95.00000000,105.99932859
576,95.00000000,105.99932859
577,94.00006104,107.99958800
578,94.00006104,107.99958800
579,94.00006104,110.99963378
580,94.00006104,109.99984741
581,94.00006104,109.99984741
582,94.00006104,109.99984741
583,94.00006104,109.99984741
584,94.00006104,109.99984741
585,94.00006104,109.99984741
586,94.00006104,109.99984741
587,94.00006104,110.99963378
588,94.00006104,110.99963378
589,94.00006104,110.99963378
590,94.00006104,110.99963378
591,94.00006104,110.99963378
592,94.00006104,110.99963378
593,94.00006104,110.99963378
594,94.00006104,110.99963378
595,94.00006104,110.99963378
596,94.00006104,110.99963378
597,94.00006104,110.99963378
598,94.00006104,110.99963378
599,94.00006104,109.99984741
600,94.00006104,109.99984741
601,94.00006104,109.99984741
602,94.00006104,109.99984741
603,94.00006104,109.99984741
604,94.00006104,109.99984741
605,94.00006104,109.99984741
606,94.00006104,109.99984741
607,94.00006104,109.99984741
608,94.00006104,109.99984741
609,94.00006104,109.99984741
610,94.00006104,110.99963378
611,94.00006104,110.99963378
612,94.00006104,110.99963378
613,94.00006104,111.99942015
614,94.00006104,111.99942015
615,94.00006104,112.99989319
616,94.00006104,112.99989319
617,94.00006104,112.99989319
618,94.00006104,112.99989319
619,94.00006104,112.99989319
620,94.00006104,112.99989319
621,94.00006104,114.99946593
622,94.00006104,115.99993896
623,94.00006104,116.99972533
624,94.00006104,115.99993896
625,94.00006104,115.99993896
626,94.00006104,115.99993896
627,94.00006104,114.99946593
628,94.00006104,114.99946593
629,94.00006104,111.99942015
630,95.00000000,111.99942015
631,95.00000000,112.99989319
632,95.00000000,113.99967956
633,95.00000000,112.99989319
634,95.00000000,110.99963378
635,95.00000000,105.99932859
636,95.00000000,103.00065615
637,94.00006104,101.00039674
638,94.00006104,99.00013733
639,94.00006104,96.00009156
640,94.00006104,94.00051881
641,95.00000000,92.00025941
642,95.00000000,92.00025941
643,95.00000000,90.00000000
644,95.00000000,89.00021363
645,95.00000000,88.00042726
646,95.00000000,89.00021363
647,95.00000000,89.00021363
648,95.00000000,91.00047304
649,95.00000000,91.00047304
650,96.00001526,91.00047304
651,96.00001526,92.00025941
652,95.00000000,93.00004578
653,95.00000000,93.00004578
654,95.00000000,94.00051881
655,95.00000000,94.00051881
656,95.00000000,94.00051881
657,95.00000000,95.00030519
658,95.00000000,95.00030519
659,95.00000000,95.00030519
660,95.00000000,95.00030519
661,95.00000000,95.00030519
662,95.00000000,96.00009156
663,95.00000000,96.00009156
664,95.00000000,95.00030519
665,95.00000000,96.00009156
666,95.00000000,95.00030519
667,95.00000000,95.00030519
668,95.00000000,95.00030519
669,95.00000000,95.00030519
670,95.00000000,95.00030519
671,95.00000000,96.00009156
672,95.00000000,96.00009156
673,95.00000000,95.00030519
674,95.00000000,96.00009156
675,95.00000000,95.00030519
676,95.00000000,95.00030519
677,95.00000000,96.00009156
678,95.00000000,97.00056459
679,95.00000000,98.00035096
680,95.00000000,97.00056459
681,95.00000000,96.00009156
682,95.00000000,95.00030519
683,95.00000000,94.00051881
684,95.00000000,94.00051881
685,95.00000000,94.00051881
686,95.00000000,95.00030519
687,95.00000000,96.00009156
688,95.00000000,95.00030519
689,95.00000000,95.00030519
690,95.00000000,95.00030519
691,95.00000000,94.00051881
692,95.00000000,94.00051881
693,95.00000000,94.00051881
694,95.00000000,95.00030519
695,95.00000000,96.00009156
696,95.00000000,96.00009156
697,95.00000000,95.00030519
698,95.00000000,94.00051881
699,95.00000000,94.00051881
700,95.00000000,92.00025941
701,95.00000000,91.00047304
702,95.00000000,92.00025941
703,95.00000000,92.00025941
704,95.00000000,94.00051881
705,95.00000000,96.00009156
706,96.00001526,96.00009156
707,96.00001526,97.00056459
708,96.00001526,97.00056459
709,95.00000000,95.00030519
710,96.00001526,93.00004578
711,95.00000000,93.00004578
712,95.00000000,93.00004578
713,95.00000000,93.00004578
714,95.00000000,93.00004578
715,95.00000000,94.00051881
716,95.00000000,93.00004578
717,95.00000000,93.00004578
718,96.00001526,92.00025941
719,95.00000000,92.00025941
720,96.00001526,92.00025941
721,96.00001526,92.00025941
722,96.00001526,92.00025941
723,96.00001526,92.00025941
724,95.00000000,94.00051881
725,95.00000000,94.00051881
726,95.00000000,94.00051881
727,95.00000000,95.00030519
728,95.00000000,95.00030519
729,95.00000000,96.00009156
730,95.00000000,96.00009156
731,95.00000000,96.00009156
732,95.00000000,96.00009156
733,95.00000000,97.00056459
734,95.00000000,97.00056459
735,95.00000000,97.00056459
736,95.00000000,97.00056459
737,95.00000000,95.00030519
738,95.00000000,94.00051881
739,95.00000000,94.00051881
740,95.00000000,94.00051881
741,95.00000000,94.00051881
742,95.00000000,94.00051881
743,95.00000000,93.00004578
744,95.00000000,92.00025941
745,95.00000000,91.00047304
746,95.00000000,91.00047304
747,95.00000000,91.00047304
748,95.00000000,92.00025941
749,95.00000000,92.00025941
750,95.00000000,93.00004578
751,95.00000000,93.00004578
752,95.00000000,93.00004578
753,95.00000000,93.00004578
754,96.00001526,92.00025941
755,96.00001526,93.00004578
756,95.00000000,93.00004578
757,95.00000000,93.00004578
758,95.00000000,93.00004578
759,95.00000000,93.00004578
760,95.00000000,92.00025941
761,95.00000000,91.00047304
762,95.00000000,91.00047304
763,95.00000000,92.00025941
764,95.00000000,92.00025941
765,95.00000000,90.00000000
766,95.00000000,89.00021363
767,95.00000000,88.00042726
768,95.00000000,86.00016785
769,95.00000000,85.00038148
770,95.00000000,84.00059511
771,95.00000000,85.00038148
772,95.00000000,86.00016785
773,95.00000000,86.00016785
774,95.00000000,87.00064089
775,95.00000000,88.00042726
776,95.00000000,87.00064089
777,95.00000000,86.00016785
778,95.00000000,85.00038148
779,95.00000000,85.00038148
780,95.00000000,85.00038148
781,95.00000000,85.00038148
782,95.00000000,86.00016785
783,95.00000000,87.00064089
784,95.00000000,86.00016785
785,95.00000000,86.00016785
786,95.00000000,86.00016785
787,95.00000000,87.00064089
788,95.00000000,87.00064089
789,95.00000000,88.00042726
790,95.00000000,88.00042726
791,95.00000000,87.00064089
792,95.00000000,87.00064089
793,95.00000000,87.00064089
794,95.00000000,88.00042726
795,95.00000000,90.00000000
796,95.00000000,90.00000000
797,95.00000000,91.00047304
798,95.00000000,91.00047304
799,95.00000000,91.00047304
800,95.00000000,91.00047304
801,95.00000000,91.00047304
802,95.00000000,90.00000000
803,95.00000000,90.00000000
804,95.00000000,90.00000000
805,95.00000000,91.00047304
806,95.00000000,94.00051881
807,95.00000000,95.00030519
808,95.00000000,95.00030519
809,95.00000000,96.00009156
810,95.00000000,96.00009156
811,95.00000000,94.00051881
812,95.00000000,93.00004578
813,95.00000000,91.00047304
814,95.00000000,91.00047304
815,95.00000000,91.00047304
816,95.00000000,91.00047304
817,95.00000000,91.00047304
818,95.00000000,91.00047304
819,95.00000000,92.00025941
820,95.00000000,93.00004578
821,95.00000000,92.00025941
822,95.00000000,92.00025941
823,95.00000000,92.00025941
824,95.00000000,92.00025941
825,95.00000000,92.00025941
826,95.00000000,92.00025941
827,95.00000000,91.00047304
828,95.00000000,91.00047304
829,95.00000000,90.00000000
830,95.00000000,90.00000000
831,95.00000000,91.00047304
832,95.00000000,91.00047304
833,95.00000000,91.00047304
834,95.00000000,90.00000000
835,95.00000000,88.00042726
836,95.00000000,87.00064089
837,95.00000000,86.00016785
838,95.00000000,86.00016785
839,95.00000000,87.00064089
840,95.00000000,87.00064089
841,95.00000000,88.00042726
842,95.00000000,88.00042726
843,95.00000000,89.00021363
844,95.00000000,89.00021363
845,95.00000000,89.00021363
846,95.00000000,89.00021363
847,95.00000000,89.00021363
848,95.00000000,89.00021363
849,95.00000000,89.00021363
850,95.00000000,90.00000000
851,95.00000000,89.00021363
852,95.00000000,89.00021363
853,95.00000000,89.00021363
854,95.00000000,88.00042726
855,95.00000000,88.00042726
856,95.00000000,88.00042726
857,95.00000000,88.00042726
858,95.00000000,89.00021363
859,95.00000000,89.00021363
860,95.00000000,89.00021363
861,95.00000000,89.00021363
862,95.00000000,88.00042726
863,95.00000000,86.00016785
864,95.00000000,85.00038148
865,95.00000000,84.00059511
866,95.00000000,83.00012207
867,95.00000000,82.00033570
868,95.00000000,84.00059511
869,95.00000000,84.00059511
870,95.00000000,86.00016785
871,95.00000000,86.00016785
872,95.00000000,89.00021363
873,95.00000000,89.00021363
874,95.00000000,90.00000000
875,95.00000000,90.00000000
876,95.00000000,90.00000000
877,95.00000000,89.00021363
878,95.00000000,89.00021363
879,95.00000000,89.00021363
880,95.00000000,89.00021363
881,95.00000000,89.00021363
882,95.00000000,90.00000000
883,95.00000000,90.00000000
884,95.00000000,91.00047304
885,95.00000000,91.00047304
886,95.00000000,92.00025941
887,95.00000000,91.00047304
888,95.00000000,91.00047304
889,95.00000000,91.00047304
890,95.00000000,91.00047304
891,95.00000000,92.00025941
892,95.00000000,91.00047304
893,95.00000000,91.00047304
894,95.00000000,90.00000000
895,95.00000000,89.00021363
896,95.00000000,89.00021363
897,95.00000000,89.00021363
898,95.00000000,88.00042726
899,95.00000000,87.00064089
900,95.00000000,86.00016785
901,95.00000000,86.00016785
902,95.00000000,86.00016785
903,95.00000000,86.00016785
904,95.00000000,86.00016785
905,95.00000000,87.00064089
906,95.00000000,87.00064089
907,95.00000000,87.00064089
908,95.00000000,86.00016785
909,95.00000000,86.00016785
910,95.00000000,86.00016785
911,95.00000000,87.00064089
912,95.00000000,88.00042726
913,95.00000000,88.00042726
914,95.00000000,88.00042726
915,95.00000000,88.00042726
916,95.00000000,88.00042726
917,95.00000000,88.00042726
918,95.00000000,89.00021363
919,95.00000000,89.00021363
920,95.00000000,89.00021363
921,95.00000000,89.00021363
922,95.00000000,90.00000000
923,95.00000000,90.00000000
924,95.00000000,90.00000000
925,95.00000000,91.00047304
926,95.00000000,91.00047304
927,95.00000000,90.00000000
928,95.00000000,89.00021363
929,95.00000000,89.00021363
930,96.00001526,101.00039674
931,96.00001526,103.00065615
932,96.00001526,103.00065615
933,96.00001526,105.99932859
934,95.00000000,106.99980163
935,96.00001526,107.99958800
936,96.00001526,107.99958800
937,96.00001526,107.99958800
938,96.00001526,107.99958800
939,96.00001526,107.99958800
940,96.00001526,107.99958800
941,96.99995422,110.99963378
942,96.99995422,110.99963378
943,96.99995422,113.99967956
944,96.99995422,113.99967956
945,96.99995422,117.99951170
946,96.99995422,119.99977111
947,96.99995422,119.99977111
948,96.99995422,119.99977111
949,96.99995422,119.99977111
950,96.99995422,119.99977111
951,96.99995422,123.99960326
952,96.99995422,117.99951170
953,97.99996948,105.99932859
954,97.99996948,102.00018311
955,97.99996948,99.00013733
956,97.99996948,94.00051881
957,97.99996948,92.00025941
958,97.99996948,89.00021363
959,97.99996948,89.00021363
960,97.99996948,88.00042726
961,97.99996948,88.00042726
962,97.99996948,90.00000000
963,97.99996948,92.00025941
964,97.99996948,92.00025941
965,97.99996948,92.00025941
966,97.99996948,92.00025941
967,97.99996948,92.00025941
968,96.99995422,92.00025941
969,96.99995422,91.00047304
970,96.99995422,91.00047304
971,96.99995422,91.00047304
972,96.00001526,91.00047304
973,96.00001526,91.00047304
974,96.00001526,91.00047304
975,96.99995422,93.00004578
976,96.99995422,93.00004578
977,96.99995422,97.00056459
978,96.00001526,99.00013733
979,96.00001526,100.00061037
980,96.00001526,102.00018311
981,96.00001526,102.00018311
982,96.00001526,100.00061037
983,96.00001526,99.00013733
984,96.00001526,98.00035096
985,96.00001526,98.00035096
986,96.00001526,99.00013733
987,96.00001526,98.00035096
988,96.00001526,97.00056459
989,96.00001526,97.00056459
990,96.00001526,97.00056459
991,96.00001526,97.00056459
992,96.00001526,99.00013733
993,96.99995422,101.00039674
994,96.99995422,101.00039674
995,96.99995422,98.00035096
996,96.99995422,94.00051881
997,96.99995422,92.00025941
998,96.99995422,91.00047304
999,96.99995422,95.00030519
1000,96.99995422,95.00030519
1001,96.00001526,98.00035096
1002,96.00001526,99.00013733
1003,96.00001526,99.00013733
1004,96.00001526,97.00056459
1005,96.00001526,96.00009156
1006,96.00001526,95.00030519
1007,96.00001526,95.00030519
1008,96.00001526,96.00009156
1009,96.00001526,99.00013733
1010,96.00001526,100.00061037
1011,96.00001526,99.00013733
1012,96.00001526,99.00013733
1013,96.00001526,99.00013733
1014,96.00001526,99.00013733
1015,96.00001526,101.00039674
1016,96.00001526,101.00039674
1017,96.00001526,101.00039674
1018,96.00001526,98.00035096
1019,96.00001526,97.00056459
1020,96.00001526,95.00030519
1021,96.00001526,94.00051881
1022,96.00001526,93.00004578
1023,96.00001526,95.00030519
1024,96.00001526,96.00009156
1025,96.00001526,99.00013733
1026,96.00001526,100.00061037
1027,96.00001526,100.00061037
1028,96.00001526,98.00035096
1029,96.00001526,98.00035096
1030,96.00001526,96.00009156
1031,96.00001526,96.00009156
1032,96.00001526,96.00009156
1033,96.00001526,98.00035096
1034,96.00001526,100.00061037
1035,96.00001526,100.00061037
1036,96.00001526,99.00013733
1037,96.00001526,98.00035096
1038,96.00001526,96.00009156
1039,96.00001526,96.00009156
1040,96.00001526,96.00009156
1041,96.00001526,96.00009156
1042,96.00001526,98.00035096
1043,96.00001526,98.00035096
1044,96.00001526,99.00013733
1045,96.00001526,98.00035096
1046,96.00001526,98.00035096
1047,96.00001526,98.00035096
1048,96.00001526,98.00035096
1049,96.00001526,98.00035096
1050,96.00001526,100.00061037
1051,96.00001526,100.00061037
1052,96.00001526,101.00039674
1053,95.00000000,101.00039674
1054,95.00000000,101.00039674
1055,95.00000000,99.00013733
1056,95.00000000,97.00056459
1057,95.00000000,97.00056459
1058,96.00001526,96.00009156
1059,96.00001526,97.00056459
1060,96.00001526,98.00035096
1061,96.00001526,99.00013733
1062,96.00001526,100.00061037
1063,96.00001526,100.00061037
1064,96.00001526,100.00061037
1065,96.00001526,100.00061037
1066,96.00001526,101.00039674
1067,96.00001526,102.00018311
1068,96.00001526,101.00039674
1069,96.00001526,99.00013733
1070,96.00001526,96.00009156
1071,96.00001526,93.00004578
1072,96.00001526,92.00025941
1073,96.00001526,93.00004578
1074,96.00001526,95.00030519
1075,96.00001526,97.00056459
1076,96.00001526,98.00035096
1077,96.00001526,100.00061037
1078,96.00001526,103.00065615
1079,96.00001526,103.00065615
1080,96.00001526,104.00044252
1081,96.00001526,99.00013733
1082,96.00001526,95.00030519
1083,96.00001526,93.00004578
1084,96.00001526,92.00025941
1085,96.00001526,92.00025941
1086,96.00001526,92.00025941
1087,96.00001526,95.00030519
1088,96.00001526,96.00009156
1089,96.00001526,97.00056459
1090,96.00001526,98.00035096
1091,96.00001526,100.00061037
1092,96.00001526,100.00061037
1093,96.00001526,103.00065615
1094,96.00001526,104.99954222
1095,96.00001526,104.99954222
1096,96.00001526,102.00018311
1097,96.00001526,95.00030519
1098,96.00001526,92.00025941
1099,96.00001526,91.00047304
1100,96.00001526,92.00025941
1101,96.00001526,93.00004578
1102,96.00001526,98.00035096
1103,96.00001526,100.00061037
1104,96.00001526,100.00061037
1105,96.00001526,99.00013733
1106,96.00001526,100.00061037
1107,96.00001526,99.00013733
1108,96.00001526,98.00035096
1109,96.00001526,97.00056459
1110,96.00001526,98.00035096
1111,96.00001526,101.00039674
1112,96.00001526,103.00065615
1113,96.00001526,103.00065615
1114,96.00001526,103.00065615
1115,96.00001526,104.00044252
1116,96.00001526,104.00044252
1117,96.00001526,101.00039674
1118,96.00001526,99.00013733
1119,96.00001526,98.00035096
1120,96.00001526,97.00056459
1121,96.00001526,97.00056459
1122,96.00001526,97.00056459
1123,96.00001526,100.00061037
1124,96.00001526,102.00018311
1125,96.00001526,102.00018311
1126,96.00001526,103.00065615
1127,96.00001526,101.00039674
1128,96.00001526,100.00061037
1129,96.00001526,99.00013733
1130,96.00001526,101.00039674
1131,96.00001526,102.00018311
1132,96.00001526,102.00018311
1133,96.00001526,103.00065615
1134,96.00001526,103.00065615
1135,96.00001526,99.00013733
1136,96.00001526,96.00009156
1137,96.00001526,95.00030519
1138,96.00001526,96.00009156
1139,96.00001526,98.00035096
1140,96.00001526,100.00061037
1141,96.00001526,102.00018311
1142,96.00001526,103.00065615
1143,96.00001526,102.00018311
1144,96.00001526,101.00039674
1145,96.00001526,101.00039674
1146,96.00001526,103.00065615
1147,96.00001526,104.00044252
1148,96.00001526,104.99954222
1149,96.00001526,103.00065615
1150,96.00001526,102.00018311
1151,96.00001526,101.00039674
1152,96.00001526,101.00039674
1153,96.00001526,99.00013733
1154,96.00001526,97.00056459
1155,96.00001526,96.00009156
1156,96.00001526,96.00009156
1157,96.00001526,98.00035096
1158,96.00001526,101.00039674
1159,96.00001526,104.00044252
1160,96.00001526,104.00044252
1161,96.00001526,106.99980163
1162,96.00001526,104.99954222
1163,96.00001526,102.00018311
1164,96.00001526,99.00013733
1165,96.00001526,95.00030519
1166,96.00001526,92.00025941
1167,96.00001526,92.00025941
1168,96.00001526,93.00004578
1169,96.00001526,96.00009156
1170,96.00001526,96.00009156
1171,96.00001526,98.00035096
1172,96.00001526,98.00035096
1173,96.00001526,98.00035096
1174,96.00001526,98.00035096
1175,96.00001526,98.00035096
1176,96.00001526,98.00035096
1177,96.00001526,97.00056459
1178,96.00001526,96.00009156
1179,96.00001526,95.00030519
1180,96.00001526,95.00030519
1181,96.00001526,95.00030519
1182,96.00001526,95.00030519
1183,96.00001526,95.00030519
1184,96.00001526,95.00030519
1185,96.00001526,95.00030519
1186,96.00001526,95.00030519
1187,96.00001526,95.00030519
1188,96.00001526,95.00030519
1189,96.00001526,96.00009156
1190,96.00001526,98.00035096
1191,95.00000000,99.00013733
1192,95.00000000,98.00035096
1193,95.00000000,95.00030519
1194,95.00000000,95.00030519
1195,95.00000000,95.00030519
1196,95.00000000,97.00056459
1197,95.00000000,97.00056459
1198,95.00000000,95.00030519
1199,95.00000000,93.00004578
1200,96.00001526,90.00000000
1201,95.00000000,90.00000000
1202,95.00000000,90.00000000
1203,95.00000000,90.00000000
1204,96.00001526,93.00004578
1205,96.00001526,95.00030519
1206,96.00001526,95.00030519
1207,96.00001526,97.00056459
1208,96.00001526,99.00013733
1209,96.00001526,99.00013733
1210,96.00001526,100.00061037
1211,96.00001526,102.00018311
1212,96.00001526,101.00039674
1213,96.00001526,100.00061037
1214,96.00001526,99.00013733
1215,96.00001526,99.00013733
1216,96.00001526,100.00061037
1217,96.00001526,100.00061037
1218,96.00001526,101.00039674
1219,96.00001526,102.00018311
1220,96.00001526,103.00065615
1221,96.00001526,104.00044252
1222,96.00001526,103.00065615
1223,96.00001526,102.00018311
1224,96.00001526,101.00039674
1225,96.00001526,101.00039674
1226,96.00001526,102.00018311
1227,96.00001526,103.00065615
1228,96.00001526,104.00044252
1229,96.00001526,101.00039674
1230,96.00001526,98.00035096
1231,96.00001526,94.00051881
1232,96.00001526,92.00025941
1233,96.00001526,92.00025941
1234,96.00001526,93.00004578
1235,96.00001526,96.00009156
1236,96.00001526,99.00013733
1237,96.00001526,101.00039674
1238,96.00001526,100.00061037
1239,96.00001526,98.00035096
1240,96.00001526,97.00056459
1241,96.00001526,96.00009156
1242,95.00000000,96.00009156
1243,95.00000000,99.00013733
1244,95.00000000,99.00013733
1245,96.00001526,102.00018311
1246,96.00001526,102.00018311
1247,95.00000000,103.00065615
1248,95.00000000,103.00065615
1249,95.00000000,103.00065615
1250,95.00000000,102.00018311
1251,95.00000000,102.00018311
1252,95.00000000,102.00018311
1253,95.00000000,101.00039674
1254,95.00000000,101.00039674
1255,95.00000000,101.00039674
1256,95.00000000,101.00039674
1257,95.00000000,101.00039674
1258,95.00000000,102.00018311
1259,95.00000000,102.00018311
1260,95.00000000,103.00065615
1261,95.00000000,103.00065615
1262,95.00000000,102.00018311
1263,95.00000000,100.00061037
1264,95.00000000,95.00030519
1265,95.00000000,94.00051881
1266,95.00000000,92.00025941
1267,95.00000000,93.00004578
1268,95.00000000,96.00009156
1269,95.00000000,100.00061037
1270,95.00000000,104.00044252
1271,96.00001526,105.99932859
1272,96.00001526,105.99932859
1273,95.00000000,104.99954222
1274,96.00001526,104.00044252
1275,95.00000000,103.00065615
1276,95.00000000,101.00039674
1277,95.00000000,100.00061037
1278,96.00001526,100.00061037
1279,96.00001526,102.00018311
1280,96.00001526,104.00044252
1281,96.00001526,103.00065615
1282,96.00001526,103.00065615
1283,96.00001526,101.00039674
1284,96.00001526,100.00061037
1285,95.00000000,99.00013733
1286,95.00000000,98.00035096
1287,95.00000000,99.00013733
1288,95.00000000,99.00013733
1289,95.00000000,101.00039674
1290,95.00000000,102.00018311
1291,95.00000000,102.00018311
1292,95.00000000,101.00039674
1293,95.00000000,100.00061037
1294,95.00000000,98.00035096
1295,95.00000000,98.00035096
1296,95.00000000,102.00018311
1297,95.00000000,102.00018311
1298,95.00000000,104.00044252
1299,95.00000000,102.00018311
1300,95.00000000,101.00039674
1301,95.00000000,100.00061037
1302,95.00000000,100.00061037
1303,95.00000000,102.00018311
1304,95.00000000,102.00018311
1305,95.00000000,103.00065615
1306,95.00000000,103.00065615
1307,95.00000000,103.00065615
1308,95.00000000,103.00065615
1309,95.00000000,101.00039674
1310,95.00000000,98.00035096
1311,95.00000000,95.00030519
1312,95.00000000,96.00009156
1313,95.00000000,98.00035096
1314,95.00000000,101.00039674
1315,95.00000000,103.00065615
1316,96.00001526,104.99954222
1317,96.00001526,104.99954222
1318,95.00000000,103.00065615
1319,95.00000000,102.00018311
1320,95.00000000,101.00039674
1321,95.00000000,101.00039674
1322,95.00000000,102.00018311
1323,95.00000000,102.00018311
1324,95.00000000,103.00065615
1325,95.00000000,103.00065615
1326,96.00001526,100.00061037
1327,96.00001526,100.00061037
1328,96.00001526,100.00061037
1329,96.00001526,102.00018311
1330,96.00001526,103.00065615
1331,96.00001526,103.00065615
1332,96.00001526,104.99954222
1333,96.00001526,104.99954222
1334,96.00001526,104.99954222
1335,96.00001526,104.99954222
1336,96.00001526,104.99954222
1337,96.00001526,106.99980163
1338,96.00001526,106.99980163
1339,96.00001526,102.00018311
1340,95.00000000,100.00061037
1341,95.00000000,98.00035096
1342,95.00000000,96.00009156
1343,95.00000000,96.00009156
1344,95.00000000,96.00009156
1345,95.00000000,96.00009156
1346,95.00000000,96.00009156
1347,95.00000000,95.00030519
1348,95.00000000,95.00030519
1349,95.00000000,94.00051881
1350,94.00006104,93.00004578
1351,94.00006104,94.00051881
1352,94.00006104,93.00004578
1353,94.00006104,92.00025941
1354,95.00000000,92.00025941
1355,95.00000000,92.00025941
1356,95.00000000,92.00025941
1357,96.00001526,92.00025941
1358,96.00001526,93.00004578
1359,96.00001526,94.00051881
1360,96.00001526,94.00051881
1361,96.00001526,94.00051881
1362,96.00001526,94.00051881
1363,96.00001526,94.00051881
1364,96.00001526,93.00004578
1365,96.00001526,93.00004578
1366,96.00001526,94.00051881
1367,95.00000000,94.00051881
1368,95.00000000,94.00051881
1369,95.00000000,94.00051881
1370,95.00000000,93.00004578
1371,95.00000000,93.00004578
1372,95.00000000,94.00051881
1373,95.00000000,95.00030519
1374,95.00000000,95.00030519
1375,95.00000000,95.00030519
1376,95.00000000,94.00051881
1377,95.00000000,93.00004578
1378,95.00000000,93.00004578
1379,95.00000000,92.00025941
1380,95.00000000,92.00025941
1381,95.00000000,94.00051881
1382,95.00000000,95.00030519
1383,95.00000000,95.00030519
1384,95.00000000,95.00030519
1385,95.00000000,93.00004578
1386,95.00000000,92.00025941
1387,95.00000000,90.00000000
1388,95.00000000,90.00000000
1389,95.00000000,90.00000000
1390,95.00000000,91.00047304
1391,95.00000000,92.00025941
1392,95.00000000,91.00047304
1393,95.00000000,92.00025941
1394,95.00000000,90.00000000
1395,95.00000000,89.00021363
1396,95.00000000,88.00042726
1397,95.00000000,88.00042726
1398,95.00000000,88.00042726
1399,95.00000000,88.00042726
1400,95.00000000,89.00021363
1401,95.00000000,90.00000000
1402,95.00000000,88.00042726
1403,95.00000000,87.00064089
1404,95.00000000,86.00016785
1405,95.00000000,86.00016785
1406,95.00000000,86.00016785
1407,95.00000000,90.00000000
1408,95.00000000,90.00000000
1409,95.00000000,94.00051881
1410,95.00000000,95.00030519
1411,95.00000000,94.00051881
1412,95.00000000,93.00004578
1413,95.00000000,91.00047304
1414,95.00000000,90.00000000
1415,96.00001526,89.00021363
1416,96.00001526,89.00021363
1417,96.00001526,90.00000000
1418,96.00001526,91.00047304
1419,96.00001526,91.00047304
1420,96.00001526,92.00025941
1421,96.00001526,93.00004578
1422,96.00001526,92.00025941
1423,96.00001526,92.00025941
1424,96.00001526,91.00047304
1425,96.00001526,91.00047304
1426,96.00001526,91.00047304
1427,96.00001526,92.00025941
1428,96.00001526,93.00004578
1429,96.00001526,92.00025941
1430,96.00001526,91.00047304
1431,96.00001526,91.00047304
1432,96.00001526,90.00000000
1433,96.00001526,90.00000000
1434,96.00001526,90.00000000
1435,96.00001526,90.00000000
1436,95.00000000,90.00000000
1437,95.00000000,90.00000000
1438,95.00000000,89.00021363
1439,95.00000000,89.00021363
1440,95.00000000,89.00021363
1441,95.00000000,89.00021363
1442,95.00000000,89.00021363
1443,95.00000000,89.00021363
1444,95.00000000,88.00042726
1445,95.00000000,88.00042726
1446,95.00000000,87.00064089
1447,95.00000000,87.00064089
1448,95.00000000,87.00064089
1449,95.00000000,88.00042726
1450,95.00000000,90.00000000
1451,95.00000000,90.00000000
1452,95.00000000,89.00021363
1453,95.00000000,88.00042726
1454,95.00000000,87.00064089
1455,95.00000000,87.00064089
1456,95.00000000,87.00064089
1457,95.00000000,88.00042726
1458,95.00000000,88.00042726
1459,95.00000000,90.00000000
1460,95.00000000,90.00000000
1461,95.00000000,92.00025941
1462,95.00000000,92.00025941
1463,95.00000000,93.00004578
1464,95.00000000,93.00004578
1465,95.00000000,93.00004578
1466,95.00000000,93.00004578
1467,95.00000000,93.00004578
1468,95.00000000,93.00004578
1469,95.00000000,92.00025941
1470,95.00000000,92.00025941
1471,95.00000000,93.00004578
1472,95.00000000,94.00051881
1473,95.00000000,94.00051881
1474,96.00001526,94.00051881
1475,96.00001526,94.00051881
1476,96.00001526,93.00004578
1477,96.00001526,93.00004578
1478,96.00001526,91.00047304
1479,96.00001526,91.00047304
1480,96.00001526,91.00047304
1481,96.00001526,92.00025941
1482,96.00001526,92.00025941
1483,96.00001526,93.00004578
1484,96.00001526,93.00004578
1485,96.00001526,92.00025941
1486,96.00001526,92.00025941
1487,96.00001526,90.00000000
1488,96.00001526,90.00000000
1489,96.00001526,89.00021363
1490,95.00000000,88.00042726
1491,95.00000000,89.00021363
1492,96.00001526,89.00021363
1493,95.00000000,89.00021363
1494,95.00000000,89.00021363
1495,95.00000000,88.00042726
1496,95.00000000,87.00064089
1497,95.00000000,87.00064089
1498,95.00000000,87.00064089
1499,95.00000000,88.00042726
1500,95.00000000,89.00021363
1501,95.00000000,89.00021363
1502,95.00000000,89.00021363
1503,95.00000000,89.00021363
1504,95.00000000,88.00042726
1505,95.00000000,86.00016785
1506,95.00000000,85.00038148
1507,95.00000000,84.00059511
1508,95.00000000,84.00059511
1509,95.00000000,84.00059511
1510,95.00000000,84.00059511
1511,95.00000000,85.00038148
1512,95.00000000,86.00016785
1513,95.00000000,86.00016785
1514,95.00000000,85.00038148
1515,95.00000000,84.00059511
1516,95.00000000,84.00059511
1517,95.00000000,83.00012207
1518,95.00000000,83.00012207
1519,95.00000000,84.00059511
1520,95.00000000,84.00059511
1521,95.00000000,85.00038148
1522,95.00000000,84.00059511
1523,95.00000000,83.00012207
1524,95.00000000,83.00012207
1525,95.00000000,82.00033570
1526,95.00000000,82.00033570
1527,95.00000000,83.00012207
1528,95.00000000,84.00059511
1529,95.00000000,85.00038148
1530,95.00000000,85.00038148
1531,95.00000000,86.00016785
1532,95.00000000,86.00016785
1533,95.00000000,85.00038148
1534,95.00000000,85.00038148
1535,95.00000000,84.00059511
1536,95.00000000,84.00059511
1537,95.00000000,85.00038148
1538,95.00000000,85.00038148
1539,95.00000000,88.00042726
1540,95.00000000,88.00042726
1541,95.00000000,89.00021363
1542,95.00000000,89.00021363
1543,95.00000000,89.00021363
1544,95.00000000,88.00042726
1545,95.00000000,87.00064089
1546,95.00000000,86.00016785
1547,95.00000000,86.00016785
1548,95.00000000,86.00016785
1549,95.00000000,86.00016785
1550,95.00000000,86.00016785
1551,95.00000000,87.00064089
1552,95.00000000,88.00042726
1553,95.00000000,88.00042726
1554,95.00000000,88.00042726
1555,95.00000000,88.00042726
1556,95.00000000,87.00064089
1557,95.00000000,87.00064089
1558,95.00000000,87.00064089
1559,95.00000000,87.00064089
1560,95.00000000,87.00064089
1561,95.00000000,87.00064089
1562,95.00000000,87.00064089
1563,95.00000000,86.00016785
1564,95.00000000,85.00038148
1565,95.00000000,84.00059511
1566,95.00000000,83.00012207
1567,95.00000000,82.00033570
1568,95.00000000,82.00033570
1569,95.00000000,82.00033570
1570,95.00000000,82.00033570
1571,95.00000000,84.00059511
1572,95.00000000,86.00016785
1573,95.00000000,86.00016785
1574,95.00000000,85.00038148
1575,95.00000000,85.00038148
1576,95.00000000,85.00038148
1577,95.00000000,84.00059511
1578,95.00000000,84.00059511
1579,95.00000000,86.00016785
1580,95.00000000,86.00016785
1581,95.00000000,86.00016785
1582,95.00000000,87.00064089
1583,95.00000000,87.00064089
1584,95.00000000,88.00042726
1585,95.00000000,88.00042726
1586,95.00000000,87.00064089
1587,95.00000000,87.00064089
1588,95.00000000,87.00064089
1589,95.00000000,87.00064089
1590,95.00000000,87.00064089
1591,95.00000000,88.00042726
1592,95.00000000,87.00064089
1593,95.00000000,87.00064089
1594,95.00000000,86.00016785
1595,95.00000000,85.00038148
1596,95.00000000,85.00038148
1597,95.00000000,85.00038148
1598,95.00000000,86.00016785
1599,95.00000000,87.00064089
1600,95.00000000,87.00064089
1601,95.00000000,87.00064089
1602,95.00000000,87.00064089
1603,95.00000000,87.00064089
1604,95.00000000,87.00064089
1605,95.00000000,87.00064089
1606,95.00000000,87.00064089
1607,95.00000000,88.00042726
1608,95.00000000,87.00064089
1609,95.00000000,87.00064089
1610,95.00000000,87.00064089
1611,95.00000000,86.00016785
1612,95.00000000,86.00016785
1613,95.00000000,85.00038148
1614,95.00000000,85.00038148
1615,95.00000000,84.00059511
1616,95.00000000,84.00059511
1617,95.00000000,85.00038148
1618,95.00000000,86.00016785
1619,95.00000000,88.00042726
1620,95.00000000,89.00021363
1621,95.00000000,89.00021363
1622,95.00000000,88.00042726
1623,95.00000000,87.00064089
1624,95.00000000,86.00016785
1625,95.00000000,85.00038148
1626,95.00000000,85.00038148
1627,95.00000000,92.00025941
1628,95.00000000,92.00025941
1629,95.00000000,92.00025941
1630,95.00000000,94.00051881
1631,95.00000000,98.00035096
1632,96.00001526,101.00039674
1633,96.00001526,101.00039674
1634,96.00001526,102.00018311
1635,96.00001526,102.00018311
1636,96.00001526,102.00018311
1637,96.00001526,102.00018311
1638,96.00001526,102.00018311
1639,96.00001526,102.00018311
1640,96.00001526,102.00018311
1641,96.00001526,102.00018311
1642,96.00001526,104.00044252
1643,95.00000000,104.00044252
1644,95.00000000,104.00044252
1645,95.00000000,104.00044252
1646,97.99996948,105.99932859
1647,97.99996948,105.99932859
1648,97.99996948,106.99980163
1649,97.99996948,107.99958800
1650,97.99996948,109.99984741
1651,97.99996948,109.99984741
1652,98.99998474,110.99963378
1653,98.99998474,110.99963378
1654,98.99998474,110.99963378
1655,98.99998474,110.99963378
1656,97.99996948,110.99963378
1657,97.99996948,110.99963378
1658,98.99998474,109.99984741
1659,97.99996948,108.99937437
1660,97.99996948,107.99958800
1661,97.99996948,106.99980163
1662,96.99995422,105.99932859
1663,96.99995422,104.99954222
1664,96.99995422,102.00018311
1665,96.99995422,101.00039674
1666,96.99995422,99.00013733
1667,96.99995422,98.00035096
1668,96.00001526,98.00035096
1669,96.00001526,97.00056459
1670,96.00001526,96.00009156
1671,96.00001526,95.00030519
1672,96.00001526,93.00004578
1673,96.00001526,92.00025941
1674,96.00001526,91.00047304
1675,96.00001526,91.00047304
1676,96.00001526,92.00025941
1677,96.00001526,92.00025941
1678,95.00000000,93.00004578
1679,95.00000000,93.00004578
1680,95.00000000,93.00004578
1681,95.00000000,92.00025941
1682,95.00000000,91.00047304
1683,95.00000000,90.00000000
1684,95.00000000,90.00000000
1685,95.00000000,90.00000000
1686,95.00000000,91.00047304
1687,95.00000000,91.00047304
1688,95.00000000,92.00025941
1689,95.00000000,91.00047304
1690,95.00000000,91.00047304
1691,95.00000000,91.00047304
1692,95.00000000,91.00047304
1693,95.00000000,92.00025941
1694,95.00000000,93.00004578
1695,95.00000000,93.00004578
1696,95.00000000,93.00004578
1697,95.00000000,93.00004578
1698,95.00000000,93.00004578
1699,95.00000000,93.00004578
1700,95.00000000,93.00004578
1701,96.00001526,92.00025941
1702,96.00001526,92.00025941
1703,96.00001526,93.00004578
1704,96.00001526,93.00004578
1705,96.00001526,93.00004578
1706,96.00001526,93.00004578
1707,96.00001526,92.00025941
1708,95.00000000,92.00025941
1709,95.00000000,92.00025941
1710,95.00000000,91.00047304
1711,95.00000000,90.00000000
1712,95.00000000,90.00000000
1713,95.00000000,89.00021363
1714,95.00000000,89.00021363
1715,95.00000000,89.00021363
1716,95.00000000,89.00021363
1717,95.00000000,89.00021363
1718,95.00000000,89.00021363
1719,95.00000000,88.00042726
1720,95.00000000,87.00064089
1721,95.00000000,87.00064089
1722,95.00000000,87.00064089
1723,95.00000000,88.00042726
1724,95.00000000,88.00042726
1725,95.00000000,89.00021363
1726,95.00000000,88.00042726
1727,95.00000000,88.00042726
1728,95.00000000,88.00042726
1729,95.00000000,88.00042726
1730,95.00000000,88.00042726
1731,95.00000000,89.00021363
1732,95.00000000,90.00000000
1733,95.00000000,90.00000000
1734,95.00000000,90.00000000
1735,95.00000000,90.00000000
1736,95.00000000,89.00021363
1737,95.00000000,89.00021363
1738,95.00000000,90.00000000
1739,95.00000000,91.00047304
1740,95.00000000,91.00047304
1741,95.00000000,91.00047304
1742,95.00000000,91.00047304
1743,95.00000000,90.00000000
1744,95.00000000,90.00000000
1745,95.00000000,90.00000000
1746,95.00000000,90.00000000
1747,95.00000000,91.00047304
1748,95.00000000,91.00047304
1749,95.00000000,92.00025941
1750,95.00000000,93.00004578
1751,95.00000000,92.00025941
1752,96.00001526,91.00047304
1753,96.00001526,90.00000000
1754,95.00000000,90.00000000
1755,95.00000000,89.00021363
1756,95.00000000,89.00021363
1757,95.00000000,89.00021363
1758,95.00000000,89.00021363
1759,95.00000000,89.00021363
1760,95.00000000,89.00021363
1761,95.00000000,90.00000000
1762,95.00000000,90.00000000
1763,95.00000000,92.00025941
1764,95.00000000,92.00025941
1765,95.00000000,92.00025941
1766,95.00000000,91.00047304
1767,95.00000000,89.00021363
1768,95.00000000,87.00064089
1769,95.00000000,85.00038148
1770,95.00000000,85.00038148
1771,95.00000000,85.00038148
1772,95.00000000,85.00038148
1773,95.00000000,87.00064089
1774,95.00000000,87.00064089
1775,95.00000000,88.00042726
1776,95.00000000,89.00021363
1777,95.00000000,89.00021363
1778,95.00000000,89.00021363
1779,95.00000000,89.00021363
1780,95.00000000,90.00000000
1781,95.00000000,90.00000000
1782,95.00000000,90.00000000
1783,95.00000000,91.00047304
1784,95.00000000,91.00047304
1785,95.00000000,91.00047304
1786,95.00000000,92.00025941
1787,95.00000000,91.00047304
1788,95.00000000,91.00047304
1789,95.00000000,91.00047304
1790,95.00000000,91.00047304
1791,95.00000000,91.00047304
1792,95.00000000,92.00025941
1793,95.00000000,92.00025941
1794,95.00000000,93.00004578
1795,95.00000000,93.00004578
1796,95.00000000,93.00004578
1797,95.00000000,92.00025941
1798,95.00000000,93.00004578
1799,95.00000000,93.00004578
1800,95.00000000,93.00004578
1801,95.00000000,94.00051881
1802,95.00000000,94.00051881
1803,95.00000000,95.00030519
1804,96.00001526,95.00030519
1805,96.00001526,94.00051881
1806,96.00001526,94.00051881
1807,96.00001526,93.00004578
1808,96.00001526,93.00004578
1809,96.00001526,93.00004578
1810,96.00001526,94.00051881
1811,96.00001526,94.00051881
1812,96.00001526,94.00051881
1813,96.00001526,94.00051881
1814,96.00001526,93.00004578
1815,96.00001526,92.00025941
1816,96.00001526,91.00047304
1817,96.00001526,91.00047304
1818,96.00001526,91.00047304
1819,96.00001526,91.00047304
1820,96.00001526,91.00047304
1821,96.00001526,92.00025941
1822,96.00001526,92.00025941
1823,96.00001526,92.00025941
1824,96.00001526,91.00047304
1825,96.00001526,91.00047304
1826,96.00001526,90.00000000
1827,96.00001526,90.00000000
1828,96.00001526,91.00047304
1829,96.00001526,91.00047304
1830,96.00001526,92.00025941
1831,96.00001526,93.00004578
1832,96.00001526,94.00051881
1833,96.00001526,94.00051881
1834,96.00001526,94.00051881
1835,96.00001526,93.00004578
1836,96.00001526,92.00025941
1837,96.00001526,91.00047304
1838,96.00001526,91.00047304
1839,96.00001526,91.00047304
1840,96.00001526,93.00004578
1841,96.00001526,93.00004578
1842,96.00001526,94.00051881
1843,96.00001526,94.00051881
1844,95.00000000,93.00004578
1845,95.00000000,92.00025941
1846,95.00000000,91.00047304
1847,95.00000000,91.00047304
1848,95.00000000,92.00025941
1849,95.00000000,93.00004578
1850,95.00000000,93.00004578
1851,96.00001526,95.00030519
1852,96.00001526,95.00030519
1853,96.00001526,96.00009156
1854,96.00001526,94.00051881
1855,96.00001526,93.00004578
1856,96.00001526,93.00004578
1857,96.00001526,92.00025941
1858,96.00001526,92.00025941
1859,96.00001526,93.00004578
1860,96.00001526,92.00025941
1861,96.00001526,92.00025941
1862,96.00001526,92.00025941
1863,96.00001526,92.00025941
1864,96.00001526,92.00025941
1865,96.00001526,92.00025941
1866,96.00001526,93.00004578
1867,96.00001526,94.00051881
1868,96.00001526,93.00004578
1869,96.00001526,93.00004578
1870,96.00001526,92.00025941
1871,96.00001526,92.00025941
1872,96.00001526,92.00025941
1873,96.00001526,92.00025941
1874,96.00001526,92.00025941
1875,96.00001526,92.00025941
1876,96.00001526,91.00047304
1877,96.00001526,91.00047304
1878,96.00001526,90.00000000
1879,96.00001526,90.00000000
1880,96.00001526,90.00000000
1881,96.00001526,90.00000000
1882,96.00001526,90.00000000
1883,96.00001526,90.00000000
1884,96.00001526,90.00000000
1885,96.00001526,90.00000000
1886,96.00001526,91.00047304
1887,96.00001526,90.00000000
1888,96.00001526,90.00000000
1889,96.00001526,90.00000000
1890,95.00000000,90.00000000
1891,95.00000000,90.00000000
1892,95.00000000,90.00000000
1893,95.00000000,90.00000000
1894,95.00000000,90.00000000
1895,95.00000000,90.00000000
1896,95.00000000,90.00000000
1897,95.00000000,90.00000000
1898,95.00000000,89.00021363
1899,95.00000000,88.00042726
1900,95.00000000,88.00042726
1901,95.00000000,88.00042726
1902,95.00000000,88.00042726
1903,95.00000000,88.00042726
1904,95.00000000,89.00021363
1905,95.00000000,89.00021363
1906,95.00000000,90.00000000
1907,95.00000000,89.00021363
1908,95.00000000,90.00000000
1909,95.00000000,90.00000000
1910,95.00000000,90.00000000
1911,95.00000000,90.00000000
1912,95.00000000,90.00000000
1913,95.00000000,90.00000000
1914,95.00000000,90.00000000
1915,95.00000000,90.00000000
1916,95.00000000,91.00047304
1917,95.00000000,93.00004578
1918,95.00000000,93.00004578
1919,95.00000000,94.00051881
1920,95.00000000,94.00051881
1921,95.00000000,94.00051881
1922,95.00000000,94.00051881
1923,95.00000000,93.00004578
1924,95.00000000,93.00004578
1925,95.00000000,93.00004578
1926,95.00000000,93.00004578
1927,95.00000000,94.00051881
1928,96.00001526,94.00051881
1929,96.00001526,95.00030519
1930,96.00001526,95.00030519
1931,96.00001526,95.00030519
1932,96.00001526,95.00030519
1933,96.00001526,95.00030519
1934,96.00001526,95.00030519
1935,96.00001526,95.00030519
1936,96.00001526,95.00030519
1937,96.00001526,95.00030519
1938,96.00001526,95.00030519
1939,96.00001526,95.00030519
1940,96.00001526,95.00030519
1941,96.00001526,96.00009156
1942,96.00001526,97.00056459
1943,96.00001526,96.00009156
1944,96.00001526,96.00009156
1945,96.00001526,95.00030519
1946,96.00001526,95.00030519
1947,96.00001526,95.00030519
1948,96.00001526,96.00009156
1949,95.00000000,96.00009156
1950,96.00001526,99.00013733
1951,96.00001526,101.00039674
1952,95.00000000,101.00039674
1953,96.00001526,102.00018311
1954,96.00001526,102.00018311
1955,96.00001526,102.00018311
1956,96.00001526,101.00039674
1957,96.00001526,100.00061037
1958,96.00001526,101.00039674
1959,96.00001526,103.00065615
1960,96.00001526,104.00044252
1961,96.00001526,104.00044252
1962,96.00001526,97.00056459
1963,96.00001526,94.00051881
1964,96.00001526,92.00025941
1965,96.00001526,89.00021363
1966,96.00001526,88.00042726
1967,96.00001526,89.00021363
1968,96.00001526,90.00000000
1969,96.00001526,90.00000000
1970,95.00000000,93.00004578
1971,95.00000000,94.00051881
1972,95.00000000,94.00051881
1973,95.00000000,95.00030519
1974,95.00000000,94.00051881
1975,96.00001526,93.00004578
1976,96.00001526,93.00004578
1977,96.00001526,92.00025941
1978,96.00001526,92.00025941
1979,96.00001526,93.00004578
1980,96.00001526,93.00004578
1981,96.00001526,93.00004578
1982,96.00001526,95.00030519
1983,96.00001526,95.00030519
1984,96.00001526,96.00009156
1985,96.00001526,97.00056459
1986,96.00001526,96.00009156
1987,96.00001526,95.00030519
1988,96.00001526,102.00018311
1989,96.00001526,100.00061037
1990,96.99995422,100.00061037
1991,96.99995422,101.00039674
1992,96.99995422,101.00039674
1993,96.99995422,101.00039674
1994,96.99995422,101.00039674
1995,96.00001526,101.00039674
1996,96.00001526,101.00039674
1997,96.00001526,102.00018311
1998,96.00001526,99.00013733
1999,96.00001526,93.00004578
2000,96.00001526,91.00047304
2001,96.00001526,89.00021363
2002,96.00001526,88.00042726
2003,96.00001526,89.00021363
2004,96.00001526,89.00021363
2005,96.00001526,90.00000000
2006,96.00001526,90.00000000
2007,96.00001526,90.00000000
2008,96.00001526,91.00047304
2009,96.00001526,92.00025941
2010,96.00001526,88.00042726
2011,96.00001526,86.00016785
2012,96.00001526,85.00038148
2013,96.00001526,83.00012207
2014,96.99995422,84.00059511
2015,96.99995422,88.00042726
2016,96.00001526,91.00047304
2017,96.00001526,93.00004578
2018,96.00001526,95.00030519
2019,96.00001526,96.00009156
2020,96.00001526,96.00009156
2021,95.00000000,96.00009156
2022,95.00000000,95.00030519
2023,95.00000000,94.00051881
2024,96.00001526,93.00004578
2025,96.00001526,93.00004578
2026,96.00001526,92.00025941
2027,96.00001526,91.00047304
2028,96.00001526,92.00025941
2029,96.00001526,94.00051881
2030,96.00001526,95.00030519
2031,96.00001526,95.00030519
2032,96.00001526,95.00030519
2033,96.00001526,95.00030519
2034,96.00001526,92.00025941
2035,96.00001526,89.00021363
2036,96.00001526,89.00021363
2037,96.00001526,88.00042726
2038,96.00001526,89.00021363
2039,96.00001526,89.00021363
2040,96.00001526,90.00000000
2041,96.00001526,90.00000000
2042,96.00001526,91.00047304
2043,96.00001526,91.00047304
2044,95.00000000,91.00047304
2045,95.00000000,92.00025941
2046,95.00000000,92.00025941
2047,95.00000000,92.00025941
2048,95.00000000,91.00047304
2049,95.00000000,91.00047304
2050,95.00000000,90.00000000
2051,95.00000000,90.00000000
2052,95.00000000,91.00047304
2053,95.00000000,92.00025941
2054,95.00000000,92.00025941
2055,95.00000000,92.00025941
2056,95.00000000,92.00025941
2057,96.00001526,92.00025941
2058,96.00001526,92.00025941
2059,96.00001526,92.00025941
2060,96.00001526,92.00025941
2061,95.00000000,93.00004578
2062,95.00000000,94.00051881
2063,95.00000000,94.00051881
2064,95.00000000,95.00030519
2065,95.00000000,95.00030519
2066,95.00000000,95.00030519
2067,95.00000000,93.00004578
2068,95.00000000,92.00025941
2069,95.00000000,92.00025941
2070,95.00000000,92.00025941
2071,95.00000000,92.00025941
2072,95.00000000,91.00047304
2073,95.00000000,91.00047304
2074,95.00000000,91.00047304
2075,95.00000000,89.00021363
2076,95.00000000,89.00021363
2077,95.00000000,88.00042726
2078,95.00000000,88.00042726
2079,95.00000000,88.00042726
2080,95.00000000,89.00021363
2081,95.00000000,89.00021363
2082,95.00000000,89.00021363
2083,95.00000000,88.00042726
2084,95.00000000,87.00064089
2085,95.00000000,87.00064089
2086,95.00000000,86.00016785
2087,95.00000000,86.00016785
2088,95.00000000,87.00064089
2089,95.00000000,88.00042726
2090,95.00000000,89.00021363
2091,95.00000000,89.00021363
2092,95.00000000,90.00000000
2093,95.00000000,88.00042726
2094,95.00000000,86.00016785
2095,95.00000000,86.00016785
2096,95.00000000,86.00016785
2097,95.00000000,87.00064089
2098,95.00000000,87.00064089
2099,95.00000000,88.00042726
2100,95.00000000,88.00042726
2101,95.00000000,87.00064089
2102,95.00000000,86.00016785
2103,95.00000000,85.00038148
2104,95.00000000,85.00038148
2105,95.00000000,85.00038148
2106,95.00000000,85.00038148
2107,95.00000000,89.00021363
2108,95.00000000,89.00021363
2109,95.00000000,90.00000000
2110,95.00000000,88.00042726
2111,95.00000000,87.00064089
2112,95.00000000,85.00038148
2113,95.00000000,85.00038148
2114,95.00000000,88.00042726
2115,95.00000000,90.00000000
2116,95.00000000,92.00025941
2117,95.00000000,94.00051881
2118,95.00000000,94.00051881
2119,95.00000000,93.00004578
2120,95.00000000,90.00000000
2121,95.00000000,88.00042726
2122,95.00000000,86.00016785
2123,95.00000000,86.00016785
2124,95.00000000,88.00042726
2125,95.00000000,88.00042726
2126,95.00000000,90.00000000
2127,95.00000000,91.00047304
2128,95.00000000,91.00047304
2129,95.00000000,92.00025941
2130,95.00000000,92.00025941
2131,95.00000000,92.00025941
2132,95.00000000,92.00025941
2133,96.00001526,92.00025941
2134,96.00001526,92.00025941
2135,96.00001526,91.00047304
2136,96.00001526,89.00021363
2137,96.00001526,88.00042726
2138,95.00000000,88.00042726
2139,95.00000000,87.00064089
2140,95.00000000,87.00064089
2141,95.00000000,87.00064089
2142,95.00000000,88.00042726
2143,95.00000000,88.00042726
2144,95.00000000,90.00000000
2145,95.00000000,90.00000000
2146,95.00000000,91.00047304
2147,95.00000000,93.00004578
2148,95.00000000,93.00004578
2149,95.00000000,96.00009156
2150,95.00000000,95.00030519
2151,95.00000000,93.00004578
2152,95.00000000,91.00047304
2153,95.00000000,90.00000000
2154,95.00000000,89.00021363
2155,95.00000000,89.00021363
2156,95.00000000,90.00000000
2157,95.00000000,90.00000000
2158,95.00000000,91.00047304
2159,95.00000000,91.00047304
2160,95.00000000,91.00047304
2161,95.00000000,91.00047304
2162,95.00000000,91.00047304
2163,95.00000000,90.00000000
2164,95.00000000,90.00000000
2165,95.00000000,90.00000000
2166,95.00000000,90.00000000
2167,95.00000000,90.00000000
2168,95.00000000,89.00021363
2169,95.00000000,90.00000000
2170,95.00000000,90.00000000
2171,95.00000000,90.00000000
2172,95.00000000,90.00000000
2173,95.00000000,91.00047304
2174,95.00000000,90.00000000
2175,95.00000000,90.00000000
2176,95.00000000,89.00021363
2177,95.00000000,89.00021363
2178,95.00000000,89.00021363
2179,95.00000000,89.00021363
2180,95.00000000,88.00042726
2181,96.00001526,88.00042726
2182,95.00000000,89.00021363
2183,95.00000000,88.00042726
2184,95.00000000,88.00042726
2185,95.00000000,88.00042726
2186,95.00000000,87.00064089
2187,95.00000000,86.00016785
2188,95.00000000,86.00016785
2189,95.00000000,86.00016785
2190,95.00000000,85.00038148
2191,95.00000000,85.00038148
2192,95.00000000,86.00016785
2193,95.00000000,86.00016785
2194,95.00000000,87.00064089
2195,95.00000000,88.00042726
2196,95.00000000,89.00021363
2197,95.00000000,88.00042726
2198,95.00000000,87.00064089
2199,95.00000000,86.00016785
2200,95.00000000,86.00016785
2201,95.00000000,86.00016785
2202,95.00000000,88.00042726
2203,95.00000000,88.00042726
2204,95.00000000,89.00021363
2205,95.00000000,89.00021363
2206,95.00000000,90.00000000
2207,95.00000000,89.00021363
2208,95.00000000,88.00042726
2209,95.00000000,90.00000000
2210,95.00000000,91.00047304
2211,95.00000000,91.00047304
2212,95.00000000,91.00047304
2213,95.00000000,90.00000000
2214,95.00000000,89.00021363
2215,95.00000000,88.00042726
2216,95.00000000,88.00042726
2217,95.00000000,88.00042726
2218,95.00000000,88.00042726
2219,95.00000000,89.00021363
2220,95.00000000,90.00000000
2221,95.00000000,90.00000000
2222,95.00000000,90.00000000
2223,95.00000000,91.00047304
2224,95.00000000,89.00021363
2225,95.00000000,88.00042726
2226,95.00000000,87.00064089
2227,95.00000000,87.00064089
2228,95.00000000,87.00064089
2229,95.00000000,88.00042726
2230,95.00000000,88.00042726
2231,95.00000000,89.00021363
2232,95.00000000,88.00042726
2233,96.00001526,88.00042726
2234,96.00001526,87.00064089
2235,96.00001526,87.00064089
2236,95.00000000,87.00064089
2237,95.00000000,87.00064089
2238,95.00000000,88.00042726
2239,95.00000000,89.00021363
2240,95.00000000,88.00042726
2241,95.00000000,88.00042726
2242,95.00000000,88.00042726
2243,95.00000000,88.00042726
2244,95.00000000,87.00064089
2245,95.00000000,87.00064089
2246,95.00000000,88.00042726
2247,95.00000000,88.00042726
2248,95.00000000,89.00021363
2249,95.00000000,89.00021363
2250,95.00000000,90.00000000
2251,95.00000000,89.00021363
2252,95.00000000,89.00021363
2253,95.00000000,89.00021363
2254,95.00000000,89.00021363
2255,95.00000000,90.00000000
2256,95.00000000,90.00000000
2257,95.00000000,89.00021363
2258,95.00000000,90.00000000
2259,95.00000000,90.00000000
2260,95.00000000,91.00047304
2261,95.00000000,91.00047304
2262,96.00001526,91.00047304
2263,95.00000000,90.00000000
2264,95.00000000,89.00021363
2265,95.00000000,88.00042726
2266,95.00000000,88.00042726
2267,95.00000000,88.00042726
2268,95.00000000,88.00042726
2269,95.00000000,88.00042726
2270,95.00000000,88.00042726
2271,95.00000000,88.00042726
2272,95.00000000,87.00064089
2273,95.00000000,86.00016785
2274,96.00001526,86.00016785
2275,96.00001526,86.00016785
2276,96.00001526,86.00016785
2277,95.00000000,87.00064089
2278,95.00000000,88.00042726
2279,95.00000000,89.00021363
2280,95.00000000,89.00021363
2281,95.00000000,88.00042726
2282,95.00000000,87.00064089
2283,95.00000000,86.00016785
2284,95.00000000,85.00038148
2285,95.00000000,84.00059511
2286,95.00000000,84.00059511
2287,95.00000000,85.00038148
