'sample interval','SpO2','hr'
'1 sec','%','bpm'
0,96.99996948,89.00076296
1,96.99996948,88.00013733
2,96.99996948,87.00044252
3,96.99996948,87.00044252
4,96.99996948,87.00044252
5,96.00000000,87.00044252
6,96.00000000,86.00074770
7,96.00000000,85.00012207
8,96.00000000,85.00012207
9,96.00000000,82.00010681
10,96.00000000,82.00010681
11,96.00000000,81.00041200
12,96.00000000,81.00041200
13,96.00000000,81.00041200
14,96.00000000,82.00010681
15,96.00000000,83.00073244
16,96.99996948,83.00073244
17,96.99996948,83.00073244
18,96.99996948,83.00073244
19,96.99996948,83.00073244
20,96.99996948,82.00010681
21,96.99996948,82.00010681
22,96.99996948,82.00010681
23,96.99996948,82.00010681
24,96.99996948,82.00010681
25,96.99996948,82.00010681
26,96.99996948,81.00041200
27,96.99996948,81.00041200
28,96.00000000,81.00041200
29,96.00000000,81.00041200
30,96.00000000,84.00042726
31,96.99996948,84.00042726
32,96.99996948,85.00012207
33,96.99996948,85.00012207
34,96.99996948,85.00012207
35,96.99996948,84.00042726
36,96.99996948,82.00010681
37,96.99996948,81.00041200
38,96.00000000,80.00071719
39,96.00000000,79.00009156
40,96.00000000,78.00039674
41,95.00003052,77.00070193
42,95.00003052,77.00070193
43,96.00000000,76.00007630
44,96.00000000,75.00038148
45,96.00000000,74.00068667
46,96.00000000,74.00068667
47,96.00000000,73.00006104
48,96.99996948,73.00006104
49,96.99996948,73.00006104
50,96.99996948,72.00036622
51,96.99996948,71.00067141
52,96.99996948,71.00067141
53,96.99996948,70.00004578
54,96.99996948,70.00004578
55,96.00000000,70.00004578
56,96.00000000,70.00004578
57,96.00000000,71.00067141
58,96.00000000,71.00067141
59,96.99996948,71.00067141
60,96.99996948,71.00067141
61,96.99996948,71.00067141
62,96.99996948,72.00036622
63,96.99996948,73.00006104
64,96.99996948,74.00068667
65,96.99996948,74.00068667
66,96.99996948,74.00068667
67,97.99993896,73.00006104
68,97.99993896,71.00067141
69,97.99993896,69.00035096
70,96.99996948,68.00065615
71,96.99996948,67.00003052
72,96.99996948,66.00033570
73,96.99996948,68.00065615
74,96.99996948,68.00065615
75,96.00000000,69.00035096
76,96.00000000,71.00067141
77,96.00000000,72.00036622
78,96.00000000,71.00067141
79,96.00000000,71.00067141
80,96.00000000,70.00004578
81,96.00000000,69.00035096
82,96.00000000,68.00065615
83,96.00000000,67.00003052
84,96.00000000,67.00003052
85,96.00000000,67.00003052
86,96.00000000,67.00003052
87,96.00000000,67.00003052
88,96.00000000,68.00065615
89,96.00000000,68.00065615
90,95.00003052,69.00035096
91,95.00003052,69.00035096
92,95.00003052,69.00035096
93,95.00003052,69.00035096
94,95.00003052,68.00065615
95,95.00003052,68.00065615
96,95.00003052,68.00065615
97,95.00003052,68.00065615
98,95.00003052,68.00065615
99,95.00003052,69.00035096
100,95.00003052,69.00035096
101,95.00003052,69.00035096
102,95.00003052,70.00004578
103,96.00000000,71.00067141
104,96.00000000,70.00004578
105,96.00000000,70.00004578
106,96.00000000,70.00004578
107,96.00000000,70.00004578
108,96.00000000,70.00004578
109,96.00000000,71.00067141
110,96.00000000,73.00006104
111,96.00000000,73.00006104
112,96.00000000,75.00038148
113,96.00000000,77.00070193
114,96.00000000,77.00070193
115,96.00000000,77.00070193
116,96.00000000,77.00070193
117,96.00000000,76.00007630
118,96.00000000,76.00007630
119,96.00000000,76.00007630
120,96.00000000,76.00007630
121,96.00000000,76.00007630
122,96.00000000,76.00007630
123,96.00000000,76.00007630
124,96.00000000,76.00007630
125,96.00000000,75.00038148
126,96.00000000,74.00068667
127,96.00000000,72.00036622
128,96.00000000,71.00067141
129,96.00000000,70.00004578
130,96.00000000,69.00035096
131,96.00000000,69.00035096
132,96.00000000,69.00035096
133,96.00000000,69.00035096
134,96.00000000,69.00035096
135,96.00000000,69.00035096
136,96.00000000,69.00035096
137,96.00000000,69.00035096
138,96.00000000,69.00035096
139,96.00000000,69.00035096
140,96.00000000,69.00035096
141,96.00000000,69.00035096
142,96.00000000,70.00004578
143,96.00000000,70.00004578
144,96.00000000,71.00067141
145,96.00000000,71.00067141
146,96.00000000,71.00067141
147,95.00003052,71.00067141
148,95.00003052,70.00004578
149,95.00003052,70.00004578
150,95.00003052,70.00004578
151,95.00003052,71.00067141
152,95.00003052,71.00067141
153,96.00000000,71.00067141
154,96.00000000,72.00036622
155,96.00000000,72.00036622
156,96.00000000,71.00067141
157,96.00000000,71.00067141
158,96.00000000,70.00004578
159,96.00000000,70.00004578
160,96.00000000,70.00004578
161,96.00000000,69.00035096
162,96.00000000,69.00035096
163,96.00000000,69.00035096
164,96.00000000,68.00065615
165,96.00000000,68.00065615
166,96.00000000,68.00065615
167,96.00000000,68.00065615
168,96.00000000,68.00065615
169,96.00000000,68.00065615
170,96.00000000,69.00035096
171,96.00000000,69.00035096
172,95.00003052,69.00035096
173,95.00003052,69.00035096
174,95.00003052,70.00004578
175,95.00003052,70.00004578
176,95.00003052,70.00004578
177,95.00003052,70.00004578
178,95.00003052,70.00004578
179,95.00003052,70.00004578
180,95.00003052,70.00004578
181,95.00003052,70.00004578
182,95.00003052,70.00004578
183,95.00003052,70.00004578
184,95.00003052,70.00004578
185,95.00003052,71.00067141
186,95.00003052,72.00036622
187,95.00003052,72.00036622
188,95.00003052,72.00036622
189,95.00003052,73.00006104
190,95.00003052,73.00006104
191,95.00003052,73.00006104
192,95.00003052,73.00006104
193,96.00000000,75.00038148
194,96.00000000,77.00070193
195,96.00000000,77.00070193
196,96.00000000,78.00039674
197,96.00000000,78.00039674
198,96.00000000,78.00039674
199,96.00000000,77.00070193
200,96.00000000,77.00070193
201,96.00000000,76.00007630
202,96.00000000,76.00007630
203,96.00000000,75.00038148
204,96.00000000,75.00038148
205,96.00000000,74.00068667
206,96.00000000,74.00068667
207,96.00000000,74.00068667
208,96.00000000,73.00006104
209,96.00000000,73.00006104
210,96.00000000,72.00036622
211,96.00000000,72.00036622
212,96.00000000,72.00036622
213,96.00000000,72.00036622
214,96.00000000,72.00036622
215,96.00000000,72.00036622
216,96.00000000,71.00067141
217,96.00000000,71.00067141
218,96.00000000,71.00067141
219,96.00000000,71.00067141
220,96.00000000,71.00067141
221,96.00000000,71.00067141
222,96.00000000,71.00067141
223,96.00000000,71.00067141
224,96.00000000,71.00067141
225,96.00000000,71.00067141
226,96.00000000,72.00036622
227,96.00000000,72.00036622
228,96.00000000,72.00036622
229,96.00000000,73.00006104
230,96.00000000,73.00006104
231,96.00000000,73.00006104
232,96.00000000,73.00006104
233,96.00000000,73.00006104
234,96.00000000,73.00006104
235,96.00000000,73.00006104
236,96.00000000,73.00006104
237,96.00000000,73.00006104
238,96.00000000,74.00068667
239,96.00000000,74.00068667
240,96.00000000,74.00068667
241,96.00000000,75.00038148
242,96.00000000,77.00070193
243,96.00000000,77.00070193
244,96.00000000,79.00009156
245,96.00000000,80.00071719
246,96.00000000,78.00039674
247,96.00000000,76.00007630
248,96.00000000,76.00007630
249,96.00000000,75.00038148
250,96.00000000,75.00038148
251,96.00000000,75.00038148
252,96.00000000,76.00007630
253,96.00000000,76.00007630
254,96.00000000,76.00007630
255,96.00000000,76.00007630
256,96.00000000,77.00070193
257,96.00000000,77.00070193
258,96.00000000,77.00070193
259,96.00000000,76.00007630
260,96.00000000,76.00007630
261,96.00000000,75.00038148
262,96.00000000,74.00068667
263,96.00000000,74.00068667
264,96.00000000,74.00068667
265,96.00000000,74.00068667
266,96.00000000,74.00068667
267,96.00000000,74.00068667
268,96.00000000,74.00068667
269,96.00000000,74.00068667
270,96.00000000,74.00068667
271,96.00000000,74.00068667
272,96.00000000,73.00006104
273,96.00000000,73.00006104
274,96.00000000,73.00006104
275,96.00000000,73.00006104
276,96.00000000,73.00006104
277,96.00000000,73.00006104
278,96.00000000,73.00006104
279,96.00000000,73.00006104
280,96.00000000,72.00036622
281,96.00000000,71.00067141
282,96.00000000,71.00067141
283,96.00000000,71.00067141
284,96.00000000,71.00067141
285,96.00000000,71.00067141
286,96.00000000,71.00067141
287,96.00000000,72.00036622
288,96.00000000,73.00006104
289,96.00000000,73.00006104
290,96.00000000,73.00006104
291,96.00000000,73.00006104
292,96.00000000,73.00006104
293,96.00000000,73.00006104
294,96.00000000,73.00006104
295,96.00000000,73.00006104
296,96.00000000,73.00006104
297,96.00000000,73.00006104
298,96.00000000,73.00006104
299,96.00000000,72.00036622
300,96.00000000,72.00036622
301,96.00000000,76.00007630
302,95.00003052,74.00068667
303,95.00003052,73.00006104
304,95.00003052,73.00006104
305,95.00003052,72.00036622
306,95.00003052,72.00036622
307,95.00003052,72.00036622
308,95.00003052,73.00006104
309,96.00000000,75.00038148
310,96.00000000,75.00038148
311,96.00000000,77.00070193
312,96.00000000,77.00070193
313,96.00000000,78.00039674
314,96.00000000,78.00039674
315,96.00000000,80.00071719
316,96.00000000,80.00071719
317,96.00000000,80.00071719
318,96.00000000,80.00071719
319,96.00000000,79.00009156
320,96.00000000,79.00009156
321,96.00000000,78.00039674
322,96.00000000,78.00039674
323,96.00000000,79.00009156
324,96.00000000,79.00009156
325,96.00000000,80.00071719
326,96.00000000,79.00009156
327,96.00000000,77.00070193
328,96.00000000,75.00038148
329,96.00000000,74.00068667
330,96.00000000,74.00068667
331,96.00000000,73.00006104
332,96.00000000,73.00006104
333,96.00000000,73.00006104
334,96.00000000,73.00006104
335,96.00000000,73.00006104
336,96.00000000,73.00006104
337,96.00000000,74.00068667
338,96.00000000,74.00068667
339,96.00000000,74.00068667
340,96.00000000,74.00068667
341,96.00000000,75.00038148
342,96.00000000,75.00038148
343,96.00000000,76.00007630
344,96.00000000,78.00039674
345,96.00000000,79.00009156
346,96.00000000,78.00039674
347,96.00000000,77.00070193
348,96.00000000,77.00070193
349,96.00000000,83.00073244
350,96.00000000,86.00074770
351,96.00000000,87.00044252
352,95.00003052,90.00045778
353,95.00003052,92.00077822
354,95.00003052,94.00016785
355,95.00003052,96.00048830
356,95.00003052,98.99957274
357,96.00000000,102.99928282
358,96.00000000,104.99960326
359,96.00000000,104.99960326
360,96.00000000,107.99961852
361,96.99996948,106.99992370
362,96.99996948,103.99990844
363,96.99996948,98.99957274
364,96.99996948,93.00047304
365,96.99996948,91.00015259
366,96.99996948,88.00013733
367,97.99993896,87.00044252
368,97.99993896,85.00012207
369,97.99993896,85.00012207
370,97.99993896,85.00012207
371,97.99993896,87.00044252
372,97.99993896,90.00045778
373,97.99993896,90.00045778
374,97.99993896,93.00047304
375,97.99993896,93.00047304
376,97.99993896,91.00015259
377,97.99993896,90.00045778
378,97.99993896,89.00076296
379,96.99996948,88.00013733
380,96.99996948,87.00044252
381,96.99996948,87.00044252
382,96.99996948,88.00013733
383,96.99996948,88.00013733
384,96.99996948,88.00013733
385,96.99996948,87.00044252
386,96.99996948,87.00044252
387,96.99996948,87.00044252
388,96.99996948,88.00013733
389,96.00000000,88.00013733
390,96.00000000,88.00013733
391,96.00000000,89.00076296
392,96.00000000,89.00076296
393,96.00000000,89.00076296
394,96.00000000,88.00013733
395,96.00000000,87.00044252
396,96.00000000,88.00013733
397,96.99996948,89.00076296
398,96.99996948,91.00015259
399,96.99996948,92.00077822
400,96.99996948,92.00077822
401,96.99996948,91.00015259
402,96.99996948,91.00015259
403,96.99996948,92.00077822
404,96.99996948,92.00077822
405,96.00000000,93.00047304
406,96.00000000,92.00077822
407,96.00000000,91.00015259
408,96.00000000,87.00044252
409,96.00000000,86.00074770
410,96.00000000,85.00012207
411,96.00000000,84.00042726
412,96.00000000,84.00042726
413,96.00000000,84.00042726
414,96.00000000,84.00042726
415,96.00000000,84.00042726
416,96.00000000,84.00042726
417,96.00000000,84.00042726
418,96.00000000,83.00073244
419,96.00000000,83.00073244
420,96.99996948,86.00074770
421,96.99996948,86.00074770
422,96.99996948,84.00042726
423,96.99996948,88.00013733
424,96.99996948,91.00015259
425,96.99996948,94.00016785
426,96.99996948,94.00016785
427,96.99996948,96.99925230
428,96.99996948,98.99957274
429,96.99996948,99.99926756
430,96.99996948,99.99926756
431,96.99996948,99.99926756
432,96.99996948,95.00079348
433,96.99996948,94.00016785
434,96.99996948,92.00077822
435,96.99996948,92.00077822
436,96.00000000,92.00077822
437,96.00000000,92.00077822
438,96.00000000,92.00077822
439,96.00000000,90.00045778
440,96.00000000,90.00045778
441,96.00000000,88.00013733
442,96.99996948,88.00013733
443,96.99996948,83.00073244
444,96.99996948,83.00073244
445,96.99996948,83.00073244
446,96.99996948,84.00042726
447,96.99996948,84.00042726
448,96.00000000,86.00074770
449,96.00000000,86.00074770
450,96.00000000,89.00076296
451,96.00000000,89.00076296
452,95.00003052,90.00045778
453,95.00003052,91.00015259
454,95.00003052,92.00077822
455,95.00003052,92.00077822
456,95.00003052,93.00047304
457,95.00003052,93.00047304
458,95.00003052,93.00047304
459,95.00003052,93.00047304
460,95.00003052,94.00016785
461,95.00003052,94.00016785
462,95.00003052,94.00016785
463,95.00003052,94.00016785
464,95.00003052,95.00079348
465,95.00003052,95.00079348
466,96.00000000,96.99925230
467,96.00000000,96.99925230
468,96.00000000,96.99925230
469,96.00000000,96.99925230
470,96.00000000,96.99925230
471,96.99996948,96.99925230
472,96.99996948,97.99987793
473,96.99996948,98.99957274
474,96.99996948,98.99957274
475,97.99993896,99.99926756
476,97.99993896,100.99989319
477,96.99996948,100.99989319
478,96.99996948,101.99958800
479,96.99996948,103.99990844
480,96.99996948,103.99990844
481,96.99996948,103.99990844
482,96.00000000,103.99990844
483,96.00000000,106.99992370
484,96.00000000,106.99992370
485,96.00000000,108.99931333
486,96.00000000,107.99961852
487,96.00000000,108.99931333
488,96.00000000,108.99931333
489,96.00000000,108.99931333
490,96.00000000,107.99961852
491,96.00000000,107.99961852
492,96.00000000,107.99961852
493,96.00000000,107.99961852
494,96.00000000,107.99961852
495,96.00000000,108.99931333
496,96.00000000,110.99963378
497,96.00000000,110.99963378
498,96.00000000,109.99993896
499,96.00000000,107.99961852
500,96.00000000,106.99992370
501,96.00000000,106.99992370
502,96.00000000,105.99929807
503,96.00000000,104.99960326
504,96.99996948,104.99960326
505,96.99996948,102.99928282
506,96.99996948,102.99928282
507,96.99996948,102.99928282
508,96.99996948,102.99928282
509,97.99993896,103.99990844
510,97.99993896,103.99990844
511,97.99993896,103.99990844
512,97.99993896,103.99990844
513,97.99993896,103.99990844
514,96.99996948,103.99990844
515,96.99996948,104.99960326
516,96.99996948,104.99960326
517,96.99996948,104.99960326
518,96.99996948,104.99960326
519,96.99996948,104.99960326
520,96.99996948,103.99990844
521,96.99996948,102.99928282
522,96.99996948,102.99928282
523,96.99996948,101.99958800
524,96.99996948,101.99958800
525,96.99996948,101.99958800
526,96.99996948,101.99958800
527,96.99996948,101.99958800
528,96.99996948,101.99958800
529,96.99996948,101.99958800
530,96.99996948,101.99958800
531,96.99996948,101.99958800
532,96.99996948,100.99989319
533,96.99996948,100.99989319
534,96.99996948,100.99989319
535,96.99996948,99.99926756
536,96.99996948,99.99926756
537,96.99996948,98.99957274
538,96.99996948,98.99957274
539,96.99996948,99.99926756
540,96.00000000,98.99957274
541,96.00000000,99.99926756
542,96.00000000,98.99957274
543,96.00000000,98.99957274
544,96.00000000,98.99957274
545,96.00000000,99.99926756
546,96.00000000,99.99926756
547,96.00000000,99.99926756
548,96.00000000,99.99926756
549,96.00000000,97.99987793
550,96.00000000,97.99987793
551,96.00000000,95.00079348
552,96.00000000,95.00079348
553,96.00000000,95.00079348
554,96.00000000,95.00079348
555,96.00000000,95.00079348
556,96.00000000,95.00079348
557,96.00000000,95.00079348
558,96.00000000,96.00048830
559,96.00000000,96.00048830
560,96.00000000,96.00048830
561,96.00000000,99.99926756
562,96.00000000,102.99928282
563,96.99996948,104.99960326
564,96.00000000,104.99960326
565,96.00000000,105.99929807
566,96.00000000,105.99929807
567,96.00000000,105.99929807
568,96.00000000,105.99929807
569,96.00000000,105.99929807
570,96.00000000,105.99929807
571,96.00000000,105.99929807
572,96.00000000,104.99960326
573,96.00000000,105.99929807
574,97.99993896,105.99929807
575,97.99993896,107.99961852
576,97.99993896,107.99961852
577,97.99993896,107.99961852
578,97.99993896,107.99961852
579,97.99993896,107.99961852
580,96.99996948,107.99961852
581,96.99996948,107.99961852
582,96.99996948,107.99961852
583,96.99996948,109.99993896
584,96.99996948,110.99963378
585,96.99996948,110.99963378
586,96.99996948,110.99963378
587,96.99996948,110.99963378
588,96.99996948,110.99963378
589,96.99996948,110.99963378
590,96.99996948,110.99963378
591,96.99996948,110.99963378
592,96.99996948,111.99932859
593,96.99996948,111.99932859
594,96.99996948,111.99932859
595,96.99996948,111.99932859
596,96.99996948,111.99932859
597,96.99996948,111.99932859
598,96.99996948,111.99932859
599,96.99996948,112.99995422
600,96.99996948,112.99995422
601,96.99996948,112.99995422
602,96.99996948,113.99964904
603,96.99996948,113.99964904
604,96.99996948,113.99964904
605,96.99996948,113.99964904
606,96.99996948,113.99964904
607,96.99996948,113.99964904
608,96.99996948,113.99964904
609,96.99996948,113.99964904
610,96.99996948,113.99964904
611,96.99996948,113.99964904
612,96.99996948,114.99934385
613,96.99996948,115.99996948
614,96.99996948,115.99996948
615,96.00000000,115.99996948
616,96.00000000,115.99996948
617,96.00000000,116.99966430
618,96.00000000,111.99932859
619,96.00000000,111.99932859
620,96.00000000,110.99963378
621,95.00003052,110.99963378
622,95.00003052,111.99932859
623,95.00003052,111.99932859
624,95.00003052,111.99932859
625,95.00003052,112.99995422
626,95.00003052,112.99995422
627,95.00003052,112.99995422
628,95.00003052,113.99964904
629,95.00003052,113.99964904
630,95.00003052,124.99908445
631,95.00003052,124.99908445
632,95.00003052,124.99908445
633,95.00003052,124.99908445
634,95.00003052,124.99908445
635,95.00003052,123.99938963
636,95.00003052,123.99938963
637,95.00003052,122.00000000
638,95.00003052,114.99934385
639,95.00003052,106.99992370
640,95.00003052,106.99992370
641,95.00003052,106.99992370
642,95.00003052,95.00079348
643,95.00003052,95.00079348
644,95.00003052,95.00079348
645,95.00003052,95.00079348
646,95.00003052,93.00047304
647,95.00003052,94.00016785
648,95.00003052,94.00016785
649,95.00003052,94.00016785
650,95.00003052,94.00016785
651,95.00003052,94.00016785
652,95.00003052,94.00016785
653,95.00003052,94.00016785
654,95.00003052,96.00048830
655,95.00003052,96.99925230
656,95.00003052,96.99925230
657,95.00003052,100.99989319
658,96.00000000,108.99931333
659,96.00000000,112.99995422
660,96.00000000,115.99996948
661,96.00000000,118.99998474
662,95.00003052,122.00000000
663,95.00003052,123.99938963
664,95.00003052,125.99971007
665,96.00000000,126.99940489
666,96.00000000,126.99940489
667,96.00000000,126.99940489
668,96.00000000,126.99940489
669,96.00000000,126.99940489
670,96.00000000,123.99938963
671,96.99996948,117.99935911
672,96.99996948,115.99996948
673,96.99996948,114.99934385
674,96.99996948,111.99932859
675,97.99993896,109.99993896
676,97.99993896,110.99963378
677,96.99996948,110.99963378
678,96.99996948,110.99963378
679,96.99996948,109.99993896
680,96.00000000,108.99931333
681,96.99996948,104.99960326
682,96.99996948,101.99958800
683,96.99996948,97.99987793
684,96.99996948,96.00048830
685,96.99996948,94.00016785
686,96.99996948,93.00047304
687,96.99996948,93.00047304
688,96.99996948,94.00016785
689,96.99996948,94.00016785
690,96.99996948,95.00079348
691,96.00000000,92.00077822
692,96.00000000,91.00015259
693,96.00000000,91.00015259
694,96.00000000,92.00077822
695,96.00000000,93.00047304
696,96.00000000,95.00079348
697,96.00000000,94.00016785
698,96.00000000,92.00077822
699,96.00000000,91.00015259
700,96.00000000,90.00045778
701,96.00000000,90.00045778
702,96.00000000,89.00076296
703,96.00000000,87.00044252
704,96.00000000,87.00044252
705,96.00000000,84.00042726
706,96.00000000,84.00042726
707,96.00000000,84.00042726
708,96.00000000,83.00073244
709,96.00000000,83.00073244
710,96.00000000,83.00073244
711,96.00000000,82.00010681
712,96.00000000,82.00010681
713,96.00000000,82.00010681
714,96.00000000,81.00041200
715,96.99996948,80.00071719
716,96.99996948,80.00071719
717,96.99996948,80.00071719
718,96.99996948,80.00071719
719,96.99996948,80.00071719
720,96.99996948,80.00071719
721,96.99996948,80.00071719
722,96.99996948,80.00071719
723,96.99996948,79.00009156
724,96.00000000,79.00009156
725,96.00000000,78.00039674
726,96.00000000,78.00039674
727,96.00000000,78.00039674
728,96.00000000,78.00039674
729,96.00000000,78.00039674
730,96.00000000,77.00070193
731,96.00000000,76.00007630
732,96.00000000,76.00007630
733,96.99996948,76.00007630
734,96.99996948,76.00007630
735,96.99996948,76.00007630
736,96.99996948,77.00070193
737,96.99996948,77.00070193
738,96.99996948,77.00070193
739,96.00000000,77.00070193
740,96.00000000,77.00070193
741,96.00000000,77.00070193
742,96.00000000,77.00070193
743,96.00000000,77.00070193
744,96.00000000,77.00070193
745,96.00000000,77.00070193
746,96.00000000,77.00070193
747,96.00000000,77.00070193
748,96.00000000,78.00039674
749,96.00000000,84.00042726
750,96.00000000,84.00042726
751,96.00000000,86.00074770
752,96.00000000,87.00044252
753,96.00000000,83.00073244
754,96.00000000,80.00071719
755,96.00000000,79.00009156
756,96.00000000,76.00007630
757,96.00000000,76.00007630
758,96.00000000,77.00070193
759,96.00000000,77.00070193
760,96.00000000,77.00070193
761,96.00000000,77.00070193
762,96.00000000,77.00070193
763,96.00000000,76.00007630
764,96.00000000,76.00007630
765,96.00000000,76.00007630
766,96.00000000,76.00007630
767,96.00000000,77.00070193
768,96.00000000,77.00070193
769,96.00000000,78.00039674
770,96.00000000,78.00039674
771,96.00000000,78.00039674
772,96.00000000,77.00070193
773,96.00000000,77.00070193
774,96.00000000,76.00007630
775,96.00000000,74.00068667
776,96.00000000,74.00068667
777,96.00000000,73.00006104
778,96.00000000,72.00036622
779,96.00000000,72.00036622
780,96.00000000,71.00067141
781,96.00000000,71.00067141
782,96.00000000,71.00067141
783,96.00000000,72.00036622
784,96.00000000,72.00036622
785,96.00000000,73.00006104
786,96.00000000,73.00006104
787,96.00000000,73.00006104
788,96.00000000,73.00006104
789,96.00000000,73.00006104
790,96.00000000,72.00036622
791,96.00000000,72.00036622
792,96.00000000,72.00036622
793,96.00000000,72.00036622
794,96.00000000,72.00036622
795,96.00000000,73.00006104
796,96.00000000,74.00068667
797,96.00000000,75.00038148
798,96.00000000,75.00038148
799,96.00000000,76.00007630
800,96.00000000,77.00070193
801,96.00000000,78.00039674
802,96.00000000,80.00071719
803,96.00000000,80.00071719
804,96.00000000,82.00010681
805,96.00000000,84.00042726
806,96.00000000,84.00042726
807,96.00000000,83.00073244
808,96.00000000,83.00073244
809,96.00000000,83.00073244
810,96.99996948,82.00010681
811,96.99996948,82.00010681
812,96.00000000,81.00041200
813,96.00000000,80.00071719
814,96.00000000,79.00009156
815,96.00000000,79.00009156
816,96.00000000,79.00009156
817,96.00000000,78.00039674
818,96.00000000,77.00070193
819,96.00000000,77.00070193
820,96.00000000,77.00070193
821,96.00000000,76.00007630
822,96.00000000,76.00007630
823,96.00000000,76.00007630
824,96.00000000,76.00007630
825,96.00000000,76.00007630
826,96.00000000,76.00007630
827,96.00000000,76.00007630
828,96.00000000,76.00007630
829,96.00000000,75.00038148
830,96.00000000,75.00038148
831,96.00000000,76.00007630
832,96.00000000,76.00007630
833,96.00000000,79.00009156
834,96.00000000,82.00010681
835,96.00000000,82.00010681
836,96.00000000,81.00041200
837,96.00000000,80.00071719
838,96.00000000,78.00039674
839,96.00000000,78.00039674
840,96.00000000,78.00039674
841,96.00000000,78.00039674
842,96.00000000,79.00009156
843,96.00000000,79.00009156
844,96.00000000,79.00009156
845,96.00000000,78.00039674
846,96.00000000,78.00039674
847,96.00000000,77.00070193
848,96.00000000,77.00070193
849,96.00000000,77.00070193
850,96.00000000,77.00070193
851,96.00000000,78.00039674
852,96.00000000,78.00039674
853,96.00000000,78.00039674
854,96.99996948,79.00009156
855,96.00000000,80.00071719
856,96.00000000,80.00071719
857,96.00000000,80.00071719
858,96.00000000,79.00009156
859,96.00000000,79.00009156
860,96.00000000,79.00009156
861,96.00000000,79.00009156
862,96.00000000,79.00009156
863,96.00000000,80.00071719
864,96.00000000,79.00009156
865,96.00000000,80.00071719
866,96.00000000,80.00071719
867,96.00000000,79.00009156
868,96.00000000,79.00009156
869,96.00000000,80.00071719
870,96.00000000,80.00071719
871,96.00000000,81.00041200
872,96.00000000,81.00041200
873,96.00000000,80.00071719
874,96.00000000,80.00071719
875,96.00000000,79.00009156
876,96.00000000,79.00009156
877,96.00000000,80.00071719
878,96.00000000,80.00071719
879,96.00000000,80.00071719
880,96.00000000,80.00071719
881,96.00000000,79.00009156
882,96.00000000,79.00009156
883,96.00000000,78.00039674
884,96.00000000,78.00039674
885,96.00000000,77.00070193
886,96.00000000,77.00070193
887,96.00000000,76.00007630
888,96.00000000,76.00007630
889,96.00000000,75.00038148
890,96.00000000,75.00038148
891,96.00000000,75.00038148
892,96.00000000,75.00038148
893,96.00000000,75.00038148
894,96.00000000,75.00038148
895,96.00000000,75.00038148
896,96.00000000,75.00038148
897,96.00000000,75.00038148
898,96.00000000,75.00038148
899,96.00000000,75.00038148
900,96.00000000,75.00038148
901,96.00000000,74.00068667
902,96.00000000,74.00068667
903,96.00000000,74.00068667
904,96.00000000,74.00068667
905,96.00000000,75.00038148
906,96.00000000,75.00038148
907,96.00000000,76.00007630
908,96.00000000,77.00070193
909,96.00000000,77.00070193
910,96.00000000,77.00070193
911,96.00000000,77.00070193
912,96.00000000,77.00070193
913,96.00000000,77.00070193
914,96.00000000,77.00070193
915,96.00000000,76.00007630
916,96.00000000,76.00007630
917,96.00000000,76.00007630
918,96.00000000,76.00007630
919,96.00000000,76.00007630
920,96.00000000,76.00007630
921,96.00000000,77.00070193
922,96.00000000,77.00070193
923,96.00000000,77.00070193
924,96.00000000,76.00007630
925,96.00000000,76.00007630
926,96.00000000,76.00007630
927,96.00000000,75.00038148
928,96.00000000,75.00038148
929,96.00000000,74.00068667
930,96.00000000,75.00038148
931,96.00000000,74.00068667
932,96.00000000,74.00068667
933,96.00000000,76.00007630
934,96.00000000,76.00007630
935,96.00000000,76.00007630
936,96.00000000,76.00007630
937,96.00000000,75.00038148
938,96.00000000,74.00068667
939,95.00003052,74.00068667
940,95.00003052,78.00039674
941,95.00003052,78.00039674
942,95.00003052,80.00071719
943,95.00003052,79.00009156
944,95.00003052,78.00039674
945,95.00003052,78.00039674
946,95.00003052,77.00070193
947,95.00003052,75.00038148
948,96.00000000,75.00038148
949,96.00000000,75.00038148
950,96.00000000,78.00039674
951,96.00000000,78.00039674
952,96.00000000,79.00009156
953,96.00000000,80.00071719
954,96.00000000,80.00071719
955,96.00000000,80.00071719
956,96.00000000,80.00071719
957,96.99996948,79.00009156
958,96.99996948,78.00039674
959,96.99996948,78.00039674
960,96.99996948,77.00070193
961,96.99996948,75.00038148
962,96.99996948,75.00038148
963,96.99996948,75.00038148
964,96.99996948,75.00038148
965,96.99996948,75.00038148
966,96.99996948,75.00038148
967,96.99996948,75.00038148
968,96.99996948,78.00039674
969,96.99996948,79.00009156
970,96.99996948,81.00041200
971,96.99996948,81.00041200
972,96.99996948,81.00041200
973,96.99996948,81.00041200
974,96.99996948,82.00010681
975,96.99996948,82.00010681
976,96.99996948,84.00042726
977,96.99996948,84.00042726
978,96.00000000,86.00074770
979,96.00000000,86.00074770
980,96.00000000,86.00074770
981,96.00000000,86.00074770
982,96.00000000,86.00074770
983,96.00000000,86.00074770
984,96.00000000,86.00074770
985,96.00000000,86.00074770
986,96.00000000,86.00074770
987,96.00000000,86.00074770
988,96.00000000,86.00074770
989,96.00000000,86.00074770
990,96.00000000,86.00074770
991,96.00000000,86.00074770
992,96.99996948,90.00045778
993,96.99996948,90.00045778
994,96.99996948,90.00045778
995,96.99996948,90.00045778
996,96.99996948,90.00045778
997,96.99996948,90.00045778
998,96.99996948,93.00047304
999,97.99993896,93.00047304
1000,97.99993896,100.99989319
1001,97.99993896,100.99989319
1002,97.99993896,101.99958800
1003,97.99993896,100.99989319
1004,97.99993896,99.99926756
1005,97.99993896,96.99925230
1006,97.99993896,96.99925230
1007,97.99993896,96.00048830
1008,97.99993896,96.00048830
1009,97.99993896,95.00079348
1010,96.99996948,95.00079348
1011,96.99996948,95.00079348
1012,96.99996948,96.00048830
1013,96.99996948,96.99925230
1014,96.99996948,96.99925230
1015,96.99996948,96.99925230
1016,96.99996948,96.00048830
1017,96.99996948,95.00079348
1018,96.99996948,95.00079348
1019,96.99996948,94.00016785
1020,96.00000000,96.99925230
1021,96.00000000,97.99987793
1022,96.00000000,99.99926756
1023,96.00000000,98.99957274
1024,96.00000000,98.99957274
1025,96.00000000,96.00048830
1026,96.00000000,94.00016785
1027,96.00000000,93.00047304
1028,96.00000000,90.00045778
1029,96.00000000,89.00076296
1030,95.00003052,86.00074770
1031,95.00003052,84.00042726
1032,95.00003052,84.00042726
1033,95.00003052,82.00010681
1034,95.00003052,81.00041200
1035,95.00003052,80.00071719
1036,95.00003052,80.00071719
1037,95.00003052,79.00009156
1038,95.00003052,79.00009156
1039,95.00003052,79.00009156
1040,95.00003052,79.00009156
1041,95.00003052,79.00009156
1042,95.00003052,80.00071719
1043,95.00003052,80.00071719
1044,95.00003052,81.00041200
1045,95.00003052,81.00041200
1046,95.00003052,81.00041200
1047,95.00003052,83.00073244
1048,95.00003052,83.00073244
1049,95.00003052,82.00010681
1050,95.00003052,82.00010681
1051,95.00003052,81.00041200
1052,95.00003052,80.00071719
1053,95.00003052,80.00071719
1054,95.00003052,80.00071719
1055,95.00003052,78.00039674
1056,95.00003052,78.00039674
1057,95.00003052,77.00070193
1058,96.00000000,76.00007630
1059,96.00000000,76.00007630
1060,95.00003052,76.00007630
1061,95.00003052,78.00039674
1062,95.00003052,78.00039674
1063,95.00003052,79.00009156
1064,95.00003052,79.00009156
1065,95.00003052,80.00071719
1066,95.00003052,79.00009156
1067,95.00003052,79.00009156
1068,95.00003052,78.00039674
1069,95.00003052,78.00039674
1070,95.00003052,77.00070193
1071,96.00000000,77.00070193
1072,96.00000000,77.00070193
1073,96.00000000,77.00070193
1074,96.00000000,78.00039674
1075,96.00000000,78.00039674
1076,96.00000000,79.00009156
1077,96.00000000,79.00009156
1078,96.00000000,79.00009156
1079,96.00000000,79.00009156
1080,96.00000000,80.00071719
1081,96.00000000,79.00009156
1082,96.00000000,79.00009156
1083,96.00000000,81.00041200
1084,96.00000000,83.00073244
1085,96.00000000,83.00073244
1086,96.99996948,84.00042726
1087,96.99996948,83.00073244
1088,96.99996948,82.00010681
1089,96.99996948,80.00071719
1090,96.00000000,79.00009156
1091,96.99996948,79.00009156
1092,96.99996948,79.00009156
1093,96.99996948,80.00071719
1094,96.99996948,80.00071719
1095,96.00000000,80.00071719
1096,96.00000000,80.00071719
1097,96.00000000,80.00071719
1098,96.00000000,80.00071719
1099,96.00000000,80.00071719
1100,96.00000000,80.00071719
1101,96.00000000,80.00071719
1102,96.99996948,80.00071719
1103,96.99996948,80.00071719
1104,96.99996948,80.00071719
1105,96.99996948,80.00071719
1106,96.99996948,81.00041200
1107,96.99996948,81.00041200
1108,96.99996948,81.00041200
1109,96.99996948,81.00041200
1110,96.99996948,82.00010681
1111,96.99996948,82.00010681
1112,96.99996948,83.00073244
1113,96.99996948,83.00073244
1114,96.99996948,83.00073244
1115,96.99996948,82.00010681
1116,96.00000000,81.00041200
1117,96.00000000,81.00041200
1118,96.00000000,81.00041200
1119,96.00000000,81.00041200
1120,96.00000000,81.00041200
1121,96.00000000,81.00041200
1122,96.00000000,81.00041200
1123,96.00000000,82.00010681
1124,96.00000000,82.00010681
1125,96.00000000,82.00010681
1126,96.00000000,83.00073244
1127,96.00000000,82.00010681
1128,96.00000000,82.00010681
1129,96.00000000,82.00010681
1130,96.00000000,82.00010681
1131,96.00000000,81.00041200
1132,96.99996948,81.00041200
1133,96.99996948,81.00041200
1134,96.99996948,81.00041200
1135,96.99996948,80.00071719
1136,96.99996948,82.00010681
1137,96.99996948,83.00073244
1138,96.99996948,84.00042726
1139,96.99996948,84.00042726
1140,96.99996948,84.00042726
1141,96.99996948,84.00042726
1142,96.00000000,84.00042726
1143,96.00000000,83.00073244
1144,96.00000000,84.00042726
1145,96.00000000,84.00042726
1146,96.00000000,84.00042726
1147,96.00000000,85.00012207
1148,96.00000000,85.00012207
1149,96.00000000,84.00042726
1150,96.00000000,84.00042726
1151,96.00000000,83.00073244
1152,96.00000000,83.00073244
1153,96.99996948,83.00073244
1154,96.99996948,82.00010681
1155,96.99996948,82.00010681
1156,96.99996948,82.00010681
1157,96.99996948,82.00010681
1158,96.99996948,83.00073244
1159,96.99996948,82.00010681
1160,96.99996948,82.00010681
1161,96.99996948,80.00071719
1162,96.99996948,78.00039674
1163,96.00000000,77.00070193
1164,96.00000000,77.00070193
1165,96.00000000,76.00007630
1166,96.00000000,77.00070193
1167,96.00000000,77.00070193
1168,96.00000000,78.00039674
1169,96.00000000,78.00039674
1170,96.00000000,80.00071719
1171,96.00000000,81.00041200
1172,96.00000000,81.00041200
1173,96.00000000,81.00041200
1174,96.00000000,81.00041200
1175,96.00000000,80.00071719
1176,96.00000000,80.00071719
1177,96.00000000,80.00071719
1178,96.00000000,80.00071719
1179,96.00000000,83.00073244
1180,96.00000000,83.00073244
1181,96.00000000,84.00042726
1182,96.00000000,85.00012207
1183,96.00000000,85.00012207
1184,96.00000000,84.00042726
1185,96.00000000,84.00042726
1186,96.99996948,83.00073244
1187,96.99996948,81.00041200
1188,96.00000000,81.00041200
1189,96.00000000,80.00071719
1190,96.00000000,81.00041200
1191,96.00000000,81.00041200
1192,96.00000000,83.00073244
1193,96.00000000,83.00073244
1194,96.99996948,84.00042726
1195,96.00000000,83.00073244
1196,96.00000000,83.00073244
1197,96.00000000,82.00010681
1198,96.00000000,81.00041200
1199,96.00000000,80.00071719
1200,96.00000000,80.00071719
1201,96.00000000,80.00071719
1202,96.00000000,82.00010681
1203,96.00000000,86.00074770
1204,96.99996948,87.00044252
1205,96.99996948,89.00076296
1206,96.99996948,88.00013733
1207,96.99996948,85.00012207
1208,96.99996948,85.00012207
1209,96.99996948,85.00012207
1210,96.99996948,85.00012207
1211,96.99996948,85.00012207
1212,96.99996948,85.00012207
1213,96.99996948,85.00012207
1214,96.99996948,85.00012207
1215,96.99996948,85.00012207
1216,96.99996948,85.00012207
1217,96.99996948,85.00012207
1218,96.99996948,85.00012207
1219,96.00000000,84.00042726
1220,96.00000000,84.00042726
1221,96.00000000,83.00073244
1222,96.00000000,83.00073244
1223,96.99996948,81.00041200
1224,96.99996948,81.00041200
1225,96.99996948,80.00071719
1226,96.99996948,79.00009156
1227,96.99996948,79.00009156
1228,96.99996948,79.00009156
1229,96.99996948,78.00039674
1230,96.99996948,78.00039674
1231,96.99996948,78.00039674
1232,96.99996948,79.00009156
1233,96.99996948,79.00009156
1234,96.99996948,81.00041200
1235,96.99996948,81.00041200
1236,96.99996948,81.00041200
1237,96.99996948,82.00010681
1238,96.99996948,82.00010681
1239,96.99996948,82.00010681
1240,96.99996948,82.00010681
1241,96.00000000,81.00041200
1242,96.00000000,81.00041200
1243,96.00000000,82.00010681
1244,96.00000000,81.00041200
1245,96.00000000,82.00010681
1246,96.00000000,82.00010681
1247,96.00000000,82.00010681
1248,96.00000000,82.00010681
1249,96.00000000,82.00010681
1250,96.00000000,82.00010681
1251,96.00000000,82.00010681
1252,96.99996948,82.00010681
1253,96.99996948,81.00041200
1254,96.99996948,81.00041200
1255,96.99996948,81.00041200
1256,96.00000000,80.00071719
1257,96.00000000,81.00041200
1258,96.00000000,81.00041200
1259,96.00000000,80.00071719
1260,96.00000000,79.00009156
1261,96.00000000,79.00009156
1262,96.00000000,78.00039674
1263,96.00000000,78.00039674
1264,96.00000000,78.00039674
1265,96.00000000,77.00070193
1266,96.00000000,78.00039674
1267,96.99996948,84.00042726
1268,96.99996948,84.00042726
1269,96.00000000,86.00074770
1270,96.00000000,86.00074770
1271,96.00000000,87.00044252
1272,96.00000000,87.00044252
1273,96.00000000,87.00044252
1274,95.00003052,87.00044252
1275,95.00003052,87.00044252
1276,95.00003052,87.00044252
1277,95.00003052,87.00044252
1278,95.00003052,88.00013733
1279,95.00003052,88.00013733
1280,95.00003052,88.00013733
1281,95.00003052,89.00076296
1282,95.00003052,89.00076296
1283,95.00003052,89.00076296
1284,96.00000000,87.00044252
1285,95.00003052,86.00074770
1286,95.00003052,86.00074770
1287,95.00003052,85.00012207
1288,95.00003052,86.00074770
1289,95.00003052,85.00012207
1290,95.00003052,86.00074770
1291,95.00003052,86.00074770
1292,95.00003052,85.00012207
1293,96.00000000,85.00012207
1294,96.00000000,85.00012207
1295,96.00000000,85.00012207
1296,96.00000000,85.00012207
1297,96.00000000,86.00074770
1298,96.00000000,86.00074770
1299,96.00000000,86.00074770
1300,96.00000000,86.00074770
1301,96.00000000,86.00074770
1302,96.00000000,86.00074770
1303,96.00000000,87.00044252
1304,96.00000000,89.00076296
1305,96.00000000,89.00076296
1306,96.00000000,90.00045778
1307,96.00000000,88.00013733
1308,96.00000000,87.00044252
1309,96.00000000,87.00044252
1310,96.00000000,86.00074770
1311,96.00000000,85.00012207
1312,96.00000000,84.00042726
1313,96.00000000,84.00042726
1314,96.00000000,84.00042726
1315,96.00000000,84.00042726
1316,96.00000000,85.00012207
1317,96.00000000,86.00074770
1318,96.00000000,85.00012207
1319,96.00000000,84.00042726
1320,96.00000000,82.00010681
1321,96.00000000,81.00041200
1322,96.00000000,80.00071719
1323,96.00000000,79.00009156
1324,96.00000000,79.00009156
1325,96.00000000,80.00071719
1326,96.00000000,82.00010681
1327,96.00000000,85.00012207
1328,96.00000000,86.00074770
1329,96.00000000,84.00042726
1330,96.00000000,83.00073244
1331,96.00000000,82.00010681
1332,96.00000000,81.00041200
1333,96.00000000,81.00041200
1334,96.00000000,81.00041200
1335,96.00000000,83.00073244
1336,96.00000000,85.00012207
1337,96.00000000,85.00012207
1338,96.00000000,85.00012207
1339,96.00000000,85.00012207
1340,96.00000000,86.00074770
1341,96.00000000,86.00074770
1342,96.00000000,86.00074770
1343,96.00000000,86.00074770
1344,96.00000000,86.00074770
1345,96.00000000,86.00074770
1346,96.00000000,86.00074770
1347,96.00000000,86.00074770
1348,96.00000000,86.00074770
1349,96.00000000,86.00074770
1350,96.00000000,86.00074770
1351,96.00000000,86.00074770
1352,96.99996948,87.00044252
1353,96.99996948,88.00013733
1354,96.99996948,88.00013733
1355,96.99996948,87.00044252
1356,96.99996948,87.00044252
1357,96.99996948,87.00044252
1358,96.99996948,87.00044252
1359,96.99996948,87.00044252
1360,96.99996948,87.00044252
1361,96.99996948,86.00074770
1362,96.99996948,87.00044252
1363,96.99996948,87.00044252
1364,96.99996948,91.00015259
1365,96.99996948,93.00047304
1366,96.99996948,93.00047304
1367,96.99996948,93.00047304
1368,96.99996948,93.00047304
1369,96.99996948,93.00047304
1370,96.99996948,93.00047304
1371,96.99996948,93.00047304
1372,96.99996948,93.00047304
1373,96.99996948,93.00047304
1374,96.99996948,93.00047304
1375,96.99996948,93.00047304
1376,96.99996948,93.00047304
1377,96.99996948,93.00047304
1378,96.99996948,93.00047304
1379,96.00000000,93.00047304
1380,96.00000000,93.00047304
1381,96.00000000,93.00047304
1382,96.00000000,93.00047304
1383,96.00000000,93.00047304
1384,96.00000000,93.00047304
1385,96.00000000,93.00047304
1386,96.00000000,93.00047304
1387,96.00000000,93.00047304
1388,96.00000000,93.00047304
1389,96.00000000,93.00047304
1390,96.99996948,96.00048830
1391,96.99996948,96.00048830
1392,96.99996948,100.99989319
1393,96.99996948,99.99926756
1394,96.99996948,98.99957274
1395,96.99996948,96.99925230
1396,96.99996948,93.00047304
1397,96.99996948,92.00077822
1398,97.99993896,90.00045778
1399,96.99996948,89.00076296
1400,96.99996948,87.00044252
1401,96.99996948,85.00012207
1402,96.99996948,84.00042726
1403,96.00000000,83.00073244
1404,96.00000000,83.00073244
1405,96.00000000,83.00073244
1406,95.00003052,83.00073244
1407,95.00003052,83.00073244
1408,95.00003052,83.00073244
1409,94.00006104,84.00042726
1410,94.00006104,84.00042726
1411,94.00006104,84.00042726
1412,94.00006104,84.00042726
1413,94.00006104,84.00042726
1414,94.00006104,84.00042726
1415,94.00006104,84.00042726
1416,94.00006104,84.00042726
1417,95.00003052,85.00012207
1418,95.00003052,86.00074770
1419,95.00003052,86.00074770
1420,95.00003052,86.00074770
1421,95.00003052,87.00044252
1422,95.00003052,89.00076296
1423,95.00003052,89.00076296
1424,95.00003052,88.00013733
1425,96.00000000,87.00044252
1426,96.00000000,86.00074770
1427,96.00000000,84.00042726
1428,96.00000000,81.00041200
1429,95.00003052,80.00071719
1430,95.00003052,80.00071719
1431,94.00006104,79.00009156
1432,94.00006104,79.00009156
1433,94.00006104,78.00039674
1434,93.00000000,77.00070193
1435,93.00000000,77.00070193
1436,93.00000000,77.00070193
1437,93.00000000,77.00070193
1438,93.00000000,78.00039674
1439,94.00006104,78.00039674
1440,95.00003052,79.00009156
1441,95.00003052,80.00071719
1442,96.00000000,80.00071719
1443,96.00000000,81.00041200
1444,96.00000000,81.00041200
1445,96.00000000,81.00041200
1446,96.00000000,81.00041200
1447,96.00000000,81.00041200
1448,96.99996948,81.00041200
1449,96.00000000,82.00010681
1450,96.00000000,81.00041200
1451,96.00000000,81.00041200
1452,96.00000000,80.00071719
1453,96.00000000,78.00039674
1454,95.00003052,77.00070193
1455,95.00003052,77.00070193
1456,95.00003052,76.00007630
1457,95.00003052,75.00038148
1458,95.00003052,73.00006104
1459,95.00003052,73.00006104
1460,95.00003052,73.00006104
1461,96.00000000,73.00006104
1462,96.00000000,73.00006104
1463,96.00000000,73.00006104
1464,96.00000000,74.00068667
1465,96.00000000,75.00038148
1466,96.00000000,75.00038148
1467,96.00000000,76.00007630
1468,96.00000000,76.00007630
1469,95.00003052,76.00007630
1470,95.00003052,76.00007630
1471,95.00003052,75.00038148
1472,95.00003052,75.00038148
1473,96.00000000,75.00038148
1474,96.00000000,75.00038148
1475,96.00000000,75.00038148
1476,96.00000000,76.00007630
1477,96.00000000,76.00007630
1478,96.00000000,76.00007630
1479,96.00000000,76.00007630
1480,96.00000000,76.00007630
1481,95.00003052,76.00007630
1482,95.00003052,75.00038148
1483,95.00003052,75.00038148
1484,95.00003052,75.00038148
1485,95.00003052,75.00038148
1486,95.00003052,75.00038148
1487,95.00003052,75.00038148
1488,95.00003052,76.00007630
1489,95.00003052,76.00007630
1490,95.00003052,77.00070193
1491,95.00003052,77.00070193
1492,95.00003052,77.00070193
1493,95.00003052,77.00070193
1494,95.00003052,77.00070193
1495,95.00003052,77.00070193
1496,95.00003052,77.00070193
1497,95.00003052,77.00070193
1498,95.00003052,77.00070193
1499,95.00003052,76.00007630
1500,95.00003052,76.00007630
1501,95.00003052,76.00007630
1502,96.00000000,76.00007630
1503,96.00000000,76.00007630
1504,95.00003052,76.00007630
1505,95.00003052,76.00007630
1506,95.00003052,76.00007630
1507,95.00003052,76.00007630
1508,95.00003052,78.00039674
1509,95.00003052,78.00039674
1510,95.00003052,79.00009156
1511,95.00003052,81.00041200
1512,95.00003052,82.00010681
1513,95.00003052,83.00073244
1514,95.00003052,83.00073244
1515,95.00003052,82.00010681
1516,95.00003052,81.00041200
1517,95.00003052,81.00041200
1518,95.00003052,80.00071719
1519,95.00003052,80.00071719
1520,95.00003052,80.00071719
1521,95.00003052,81.00041200
1522,95.00003052,81.00041200
1523,95.00003052,80.00071719
1524,95.00003052,79.00009156
1525,95.00003052,79.00009156
1526,95.00003052,78.00039674
1527,95.00003052,77.00070193
1528,95.00003052,76.00007630
1529,95.00003052,76.00007630
1530,95.00003052,78.00039674
1531,95.00003052,78.00039674
1532,95.00003052,79.00009156
1533,95.00003052,80.00071719
1534,95.00003052,78.00039674
1535,95.00003052,77.00070193
1536,95.00003052,77.00070193
1537,95.00003052,76.00007630
1538,95.00003052,76.00007630
1539,95.00003052,76.00007630
1540,95.00003052,76.00007630
1541,95.00003052,76.00007630
1542,95.00003052,77.00070193
1543,95.00003052,77.00070193
1544,95.00003052,76.00007630
1545,94.00006104,77.00070193
1546,94.00006104,75.00038148
1547,94.00006104,75.00038148
1548,94.00006104,75.00038148
1549,94.00006104,75.00038148
1550,94.00006104,75.00038148
1551,95.00003052,76.00007630
1552,95.00003052,75.00038148
1553,95.00003052,75.00038148
1554,95.00003052,74.00068667
1555,95.00003052,73.00006104
1556,95.00003052,73.00006104
1557,95.00003052,72.00036622
1558,96.00000000,74.00068667
1559,96.00000000,74.00068667
1560,96.00000000,75.00038148
1561,96.00000000,75.00038148
1562,96.99996948,75.00038148
1563,96.99996948,76.00007630
1564,96.99996948,77.00070193
1565,96.00000000,77.00070193
1566,96.00000000,77.00070193
1567,96.00000000,76.00007630
1568,96.00000000,76.00007630
1569,96.00000000,76.00007630
1570,96.00000000,75.00038148
1571,96.00000000,76.00007630
1572,96.00000000,76.00007630
1573,96.00000000,76.00007630
1574,96.00000000,76.00007630
1575,96.00000000,76.00007630
1576,96.00000000,76.00007630
1577,96.00000000,76.00007630
1578,96.00000000,76.00007630
1579,96.00000000,76.00007630
1580,96.00000000,76.00007630
1581,96.00000000,76.00007630
1582,96.00000000,76.00007630
1583,96.00000000,76.00007630
1584,96.00000000,76.00007630
1585,96.00000000,77.00070193
1586,96.00000000,77.00070193
1587,96.00000000,77.00070193
1588,96.00000000,77.00070193
1589,96.00000000,78.00039674
1590,96.00000000,78.00039674
1591,96.00000000,78.00039674
1592,96.00000000,79.00009156
1593,96.00000000,79.00009156
1594,95.00003052,79.00009156
1595,95.00003052,79.00009156
1596,95.00003052,79.00009156
1597,95.00003052,78.00039674
1598,95.00003052,77.00070193
1599,95.00003052,76.00007630
1600,95.00003052,76.00007630
1601,95.00003052,76.00007630
1602,95.00003052,76.00007630
1603,95.00003052,76.00007630
1604,95.00003052,77.00070193
1605,95.00003052,77.00070193
1606,95.00003052,77.00070193
1607,95.00003052,78.00039674
1608,95.00003052,78.00039674
1609,95.00003052,78.00039674
1610,95.00003052,78.00039674
1611,95.00003052,78.00039674
1612,95.00003052,78.00039674
1613,95.00003052,78.00039674
1614,95.00003052,79.00009156
1615,95.00003052,78.00039674
1616,95.00003052,79.00009156
1617,95.00003052,79.00009156
1618,95.00003052,79.00009156
1619,94.00006104,79.00009156
1620,94.00006104,80.00071719
1621,94.00006104,80.00071719
1622,94.00006104,80.00071719
1623,94.00006104,80.00071719
1624,94.00006104,80.00071719
1625,94.00006104,79.00009156
1626,94.00006104,79.00009156
1627,94.00006104,78.00039674
1628,94.00006104,78.00039674
1629,94.00006104,78.00039674
1630,94.00006104,78.00039674
1631,94.00006104,78.00039674
1632,94.00006104,78.00039674
1633,94.00006104,78.00039674
1634,94.00006104,78.00039674
1635,95.00003052,77.00070193
1636,95.00003052,77.00070193
1637,95.00003052,78.00039674
1638,96.00000000,75.00038148
1639,96.00000000,75.00038148
1640,96.00000000,75.00038148
1641,96.00000000,75.00038148
1642,95.00003052,76.00007630
1643,95.00003052,76.00007630
1644,95.00003052,76.00007630
1645,95.00003052,76.00007630
1646,95.00003052,77.00070193
1647,95.00003052,77.00070193
1648,95.00003052,78.00039674
1649,95.00003052,78.00039674
1650,95.00003052,78.00039674
1651,95.00003052,78.00039674
1652,95.00003052,78.00039674
1653,95.00003052,78.00039674
1654,95.00003052,77.00070193
1655,95.00003052,77.00070193
1656,95.00003052,76.00007630
1657,95.00003052,76.00007630
1658,95.00003052,76.00007630
1659,95.00003052,76.00007630
1660,95.00003052,76.00007630
1661,95.00003052,76.00007630
1662,95.00003052,76.00007630
1663,95.00003052,77.00070193
1664,95.00003052,77.00070193
1665,95.00003052,78.00039674
1666,95.00003052,78.00039674
1667,95.00003052,78.00039674
1668,95.00003052,79.00009156
1669,95.00003052,79.00009156
1670,95.00003052,80.00071719
1671,95.00003052,80.00071719
1672,95.00003052,79.00009156
1673,95.00003052,79.00009156
1674,96.00000000,79.00009156
1675,95.00003052,79.00009156
1676,95.00003052,79.00009156
1677,95.00003052,80.00071719
1678,95.00003052,82.00010681
1679,95.00003052,85.00012207
1680,95.00003052,85.00012207
1681,95.00003052,87.00044252
1682,96.00000000,87.00044252
1683,96.00000000,88.00013733
1684,96.00000000,88.00013733
1685,96.00000000,88.00013733
1686,96.00000000,89.00076296
1687,96.00000000,89.00076296
1688,96.00000000,90.00045778
1689,96.00000000,90.00045778
1690,96.00000000,90.00045778
1691,96.00000000,90.00045778
1692,96.99996948,92.00077822
1693,96.99996948,92.00077822
1694,96.99996948,92.00077822
1695,96.99996948,92.00077822
1696,96.99996948,92.00077822
1697,96.99996948,92.00077822
1698,96.99996948,92.00077822
1699,96.99996948,92.00077822
1700,96.99996948,92.00077822
1701,96.99996948,95.00079348
1702,96.00000000,96.99925230
1703,96.00000000,98.99957274
1704,96.00000000,99.99926756
1705,96.99996948,100.99989319
1706,97.99993896,100.99989319
1707,97.99993896,100.99989319
1708,97.99993896,100.99989319
1709,97.99993896,99.99926756
1710,99.00000000,99.99926756
1711,99.00000000,99.99926756
1712,97.99993896,98.99957274
1713,97.99993896,97.99987793
1714,97.99993896,96.99925230
1715,97.99993896,96.99925230
1716,97.99993896,96.99925230
1717,96.99996948,96.99925230
1718,96.99996948,96.99925230
1719,96.00000000,96.00048830
1720,96.00000000,96.00048830
1721,96.00000000,96.99925230
1722,95.00003052,96.99925230
1723,95.00003052,97.99987793
1724,95.00003052,97.99987793
1725,95.00003052,97.99987793
1726,95.00003052,97.99987793
1727,95.00003052,97.99987793
1728,95.00003052,96.99925230
1729,95.00003052,95.00079348
1730,95.00003052,92.00077822
1731,95.00003052,92.00077822
1732,95.00003052,91.00015259
1733,94.00006104,91.00015259
1734,94.00006104,91.00015259
1735,94.00006104,91.00015259
1736,94.00006104,89.00076296
1737,95.00003052,89.00076296
1738,95.00003052,87.00044252
1739,95.00003052,87.00044252
1740,95.00003052,87.00044252
1741,95.00003052,89.00076296
1742,95.00003052,90.00045778
1743,96.00000000,90.00045778
1744,96.00000000,90.00045778
1745,96.00000000,86.00074770
1746,96.00000000,84.00042726
1747,96.00000000,83.00073244
1748,96.99996948,81.00041200
1749,96.99996948,80.00071719
1750,96.99996948,80.00071719
1751,96.99996948,78.00039674
1752,96.99996948,77.00070193
1753,96.99996948,74.00068667
1754,96.99996948,73.00006104
1755,96.99996948,72.00036622
1756,96.99996948,72.00036622
1757,96.99996948,72.00036622
1758,96.00000000,72.00036622
1759,96.00000000,73.00006104
1760,96.00000000,75.00038148
1761,96.00000000,76.00007630
1762,96.00000000,76.00007630
1763,95.00003052,75.00038148
1764,95.00003052,75.00038148
1765,95.00003052,75.00038148
1766,95.00003052,74.00068667
1767,96.00000000,74.00068667
1768,96.00000000,73.00006104
1769,96.00000000,73.00006104
1770,96.00000000,72.00036622
1771,96.00000000,72.00036622
1772,96.00000000,72.00036622
1773,96.00000000,72.00036622
1774,96.00000000,72.00036622
1775,96.00000000,73.00006104
1776,96.00000000,73.00006104
1777,96.00000000,73.00006104
1778,96.00000000,74.00068667
1779,95.00003052,74.00068667
1780,95.00003052,75.00038148
1781,95.00003052,75.00038148
1782,95.00003052,76.00007630
1783,95.00003052,76.00007630
1784,95.00003052,76.00007630
1785,95.00003052,76.00007630
1786,95.00003052,77.00070193
1787,95.00003052,77.00070193
1788,95.00003052,76.00007630
1789,95.00003052,76.00007630
1790,95.00003052,75.00038148
1791,96.00000000,75.00038148
1792,96.00000000,75.00038148
1793,96.00000000,75.00038148
1794,96.00000000,75.00038148
1795,96.00000000,75.00038148
1796,96.00000000,75.00038148
1797,96.00000000,75.00038148
1798,96.00000000,75.00038148
1799,95.00003052,75.00038148
1800,95.00003052,75.00038148
1801,95.00003052,75.00038148
1802,95.00003052,76.00007630
1803,95.00003052,76.00007630
1804,95.00003052,76.00007630
1805,95.00003052,75.00038148
1806,96.00000000,75.00038148
1807,96.00000000,74.00068667
1808,96.00000000,74.00068667
1809,95.00003052,75.00038148
1810,95.00003052,75.00038148
1811,95.00003052,75.00038148
1812,95.00003052,74.00068667
1813,95.00003052,74.00068667
1814,95.00003052,74.00068667
1815,95.00003052,73.00006104
1816,95.00003052,73.00006104
1817,95.00003052,74.00068667
1818,95.00003052,75.00038148
1819,95.00003052,75.00038148
1820,95.00003052,76.00007630
1821,95.00003052,76.00007630
1822,95.00003052,75.00038148
1823,95.00003052,74.00068667
1824,95.00003052,74.00068667
1825,95.00003052,74.00068667
1826,95.00003052,74.00068667
1827,95.00003052,74.00068667
1828,95.00003052,74.00068667
1829,95.00003052,74.00068667
1830,95.00003052,73.00006104
1831,95.00003052,73.00006104
1832,95.00003052,72.00036622
1833,95.00003052,72.00036622
1834,95.00003052,72.00036622
1835,95.00003052,73.00006104
1836,95.00003052,73.00006104
1837,95.00003052,74.00068667
1838,95.00003052,74.00068667
1839,95.00003052,75.00038148
1840,95.00003052,75.00038148
1841,94.00006104,75.00038148
1842,94.00006104,75.00038148
1843,94.00006104,75.00038148
1844,94.00006104,74.00068667
1845,94.00006104,74.00068667
1846,95.00003052,74.00068667
1847,95.00003052,74.00068667
1848,95.00003052,75.00038148
1849,95.00003052,75.00038148
1850,95.00003052,75.00038148
1851,96.00000000,76.00007630
1852,96.00000000,76.00007630
1853,96.00000000,76.00007630
1854,96.00000000,76.00007630
1855,96.00000000,76.00007630
1856,96.00000000,75.00038148
1857,96.00000000,75.00038148
1858,96.00000000,75.00038148
1859,96.00000000,75.00038148
1860,96.00000000,75.00038148
1861,96.00000000,75.00038148
1862,96.00000000,78.00039674
1863,96.00000000,78.00039674
1864,96.00000000,79.00009156
1865,96.00000000,79.00009156
1866,96.00000000,78.00039674
1867,96.00000000,78.00039674
1868,96.00000000,77.00070193
1869,96.00000000,77.00070193
1870,96.00000000,77.00070193
1871,96.00000000,77.00070193
1872,96.00000000,77.00070193
1873,96.00000000,76.00007630
1874,96.00000000,75.00038148
1875,96.00000000,75.00038148
1876,96.00000000,75.00038148
1877,95.00003052,75.00038148
1878,95.00003052,75.00038148
1879,95.00003052,75.00038148
1880,95.00003052,75.00038148
1881,95.00003052,74.00068667
1882,95.00003052,73.00006104
1883,95.00003052,73.00006104
1884,95.00003052,73.00006104
1885,95.00003052,73.00006104
1886,95.00003052,73.00006104
1887,95.00003052,73.00006104
1888,95.00003052,74.00068667
1889,95.00003052,74.00068667
1890,95.00003052,74.00068667
1891,95.00003052,74.00068667
1892,95.00003052,74.00068667
1893,95.00003052,75.00038148
1894,95.00003052,75.00038148
1895,95.00003052,75.00038148
1896,95.00003052,75.00038148
1897,95.00003052,75.00038148
1898,95.00003052,75.00038148
1899,95.00003052,76.00007630
1900,95.00003052,76.00007630
1901,95.00003052,77.00070193
1902,95.00003052,77.00070193
1903,95.00003052,78.00039674
1904,95.00003052,78.00039674
1905,95.00003052,78.00039674
1906,95.00003052,78.00039674
1907,95.00003052,78.00039674
1908,96.00000000,77.00070193
1909,96.00000000,78.00039674
1910,96.00000000,78.00039674
1911,96.00000000,78.00039674
1912,96.00000000,77.00070193
1913,96.00000000,76.00007630
1914,96.00000000,75.00038148
1915,96.00000000,75.00038148
1916,96.00000000,75.00038148
1917,96.00000000,75.00038148
1918,96.00000000,75.00038148
1919,96.00000000,75.00038148
1920,96.00000000,75.00038148
1921,96.00000000,74.00068667
1922,96.00000000,74.00068667
1923,96.00000000,74.00068667
1924,96.00000000,75.00038148
1925,96.00000000,75.00038148
1926,96.00000000,76.00007630
1927,96.00000000,76.00007630
1928,96.00000000,77.00070193
1929,96.00000000,77.00070193
1930,96.00000000,77.00070193
1931,96.00000000,77.00070193
1932,96.00000000,77.00070193
1933,96.00000000,77.00070193
1934,95.00003052,77.00070193
1935,95.00003052,76.00007630
1936,95.00003052,76.00007630
1937,95.00003052,76.00007630
1938,96.00000000,76.00007630
1939,96.00000000,76.00007630
1940,96.00000000,76.00007630
1941,96.00000000,76.00007630
1942,96.00000000,76.00007630
1943,96.00000000,75.00038148
1944,96.00000000,75.00038148
1945,96.00000000,76.00007630
1946,96.00000000,76.00007630
1947,96.00000000,76.00007630
1948,96.00000000,76.00007630
1949,96.00000000,76.00007630
1950,96.00000000,75.00038148
1951,96.00000000,74.00068667
1952,96.00000000,74.00068667
1953,96.00000000,74.00068667
1954,96.00000000,74.00068667
1955,96.00000000,74.00068667
1956,96.00000000,75.00038148
1957,96.00000000,75.00038148
1958,96.00000000,75.00038148
1959,96.00000000,75.00038148
1960,96.00000000,76.00007630
1961,96.00000000,76.00007630
1962,96.00000000,76.00007630
1963,96.00000000,76.00007630
1964,96.00000000,76.00007630
1965,95.00003052,76.00007630
1966,95.00003052,76.00007630
1967,95.00003052,76.00007630
1968,95.00003052,76.00007630
1969,95.00003052,76.00007630
1970,95.00003052,76.00007630
1971,95.00003052,77.00070193
1972,95.00003052,77.00070193
1973,95.00003052,76.00007630
1974,95.00003052,75.00038148
1975,95.00003052,74.00068667
1976,95.00003052,74.00068667
1977,95.00003052,73.00006104
1978,95.00003052,73.00006104
1979,95.00003052,74.00068667
1980,95.00003052,74.00068667
1981,95.00003052,74.00068667
1982,95.00003052,75.00038148
1983,95.00003052,75.00038148
1984,94.00006104,75.00038148
1985,94.00006104,75.00038148
1986,94.00006104,75.00038148
1987,95.00003052,75.00038148
1988,95.00003052,75.00038148
1989,95.00003052,74.00068667
1990,95.00003052,75.00038148
1991,95.00003052,74.00068667
1992,95.00003052,75.00038148
1993,95.00003052,78.00039674
1994,95.00003052,78.00039674
1995,95.00003052,82.00010681
1996,95.00003052,82.00010681
1997,95.00003052,82.00010681
1998,94.00006104,81.00041200
1999,95.00003052,76.00007630
2000,95.00003052,77.00070193
2001,95.00003052,78.00039674
2002,95.00003052,78.00039674
2003,95.00003052,78.00039674
2004,95.00003052,78.00039674
2005,95.00003052,77.00070193
2006,95.00003052,77.00070193
2007,95.00003052,78.00039674
2008,95.00003052,77.00070193
2009,95.00003052,77.00070193
2010,95.00003052,77.00070193
2011,95.00003052,77.00070193
2012,95.00003052,78.00039674
2013,95.00003052,78.00039674
2014,96.00000000,78.00039674
2015,96.00000000,78.00039674
2016,96.00000000,79.00009156
2017,96.00000000,79.00009156
2018,95.00003052,79.00009156
2019,95.00003052,79.00009156
2020,95.00003052,78.00039674
2021,95.00003052,78.00039674
2022,95.00003052,78.00039674
2023,95.00003052,78.00039674
2024,95.00003052,78.00039674
2025,95.00003052,78.00039674
2026,95.00003052,78.00039674
2027,95.00003052,78.00039674
2028,95.00003052,78.00039674
2029,95.00003052,78.00039674
2030,95.00003052,78.00039674
2031,95.00003052,78.00039674
2032,95.00003052,80.00071719
2033,96.00000000,80.00071719
2034,96.00000000,80.00071719
2035,96.00000000,83.00073244
2036,96.00000000,85.00012207
2037,96.99996948,85.00012207
2038,96.99996948,87.00044252
2039,96.99996948,89.00076296
2040,96.99996948,89.00076296
2041,96.99996948,90.00045778
2042,96.99996948,90.00045778
2043,96.00000000,91.00015259
2044,96.00000000,92.00077822
2045,96.00000000,93.00047304
2046,95.00003052,97.99987793
2047,95.00003052,100.99989319
2048,95.00003052,100.99989319
2049,95.00003052,98.99957274
2050,95.00003052,96.99925230
2051,95.00003052,95.00079348
2052,94.00006104,93.00047304
2053,94.00006104,91.00015259
2054,94.00006104,90.00045778
2055,95.00003052,89.00076296
2056,95.00003052,85.00012207
2057,95.00003052,83.00073244
2058,95.00003052,82.00010681
2059,95.00003052,80.00071719
2060,95.00003052,79.00009156
2061,95.00003052,78.00039674
2062,95.00003052,78.00039674
2063,95.00003052,78.00039674
2064,95.00003052,79.00009156
2065,95.00003052,80.00071719
2066,95.00003052,80.00071719
2067,96.00000000,81.00041200
2068,96.00000000,80.00071719
2069,96.00000000,80.00071719
2070,96.00000000,79.00009156
2071,96.00000000,79.00009156
2072,96.00000000,79.00009156
2073,96.00000000,79.00009156
2074,96.00000000,79.00009156
2075,96.00000000,79.00009156
2076,96.00000000,80.00071719
2077,95.00003052,80.00071719
2078,96.00000000,81.00041200
2079,95.00003052,85.00012207
2080,95.00003052,86.00074770
2081,95.00003052,88.00013733
2082,95.00003052,87.00044252
2083,95.00003052,85.00012207
2084,95.00003052,82.00010681
2085,95.00003052,82.00010681
2086,96.00000000,81.00041200
2087,96.00000000,80.00071719
2088,96.00000000,79.00009156
2089,96.00000000,78.00039674
2090,96.00000000,78.00039674
2091,96.00000000,77.00070193
2092,96.00000000,77.00070193
2093,96.00000000,77.00070193
2094,96.00000000,77.00070193
2095,96.99996948,76.00007630
2096,96.00000000,76.00007630
2097,96.00000000,76.00007630
2098,96.00000000,76.00007630
2099,96.00000000,76.00007630
2100,95.00003052,76.00007630
2101,95.00003052,77.00070193
2102,95.00003052,77.00070193
2103,94.00006104,78.00039674
2104,94.00006104,78.00039674
2105,94.00006104,79.00009156
2106,94.00006104,79.00009156
2107,94.00006104,80.00071719
2108,94.00006104,80.00071719
2109,94.00006104,80.00071719
2110,94.00006104,81.00041200
2111,94.00006104,82.00010681
2112,94.00006104,84.00042726
2113,94.00006104,84.00042726
2114,94.00006104,84.00042726
2115,94.00006104,85.00012207
2116,94.00006104,83.00073244
2117,94.00006104,82.00010681
2118,95.00003052,81.00041200
2119,95.00003052,79.00009156
2120,95.00003052,78.00039674
2121,96.00000000,78.00039674
2122,96.00000000,77.00070193
2123,96.00000000,76.00007630
2124,96.00000000,75.00038148
2125,96.00000000,74.00068667
2126,96.00000000,74.00068667
2127,96.00000000,74.00068667
2128,96.00000000,73.00006104
2129,96.00000000,73.00006104
2130,96.00000000,73.00006104
2131,96.00000000,73.00006104
2132,96.00000000,74.00068667
2133,96.00000000,74.00068667
2134,96.00000000,73.00006104
2135,96.00000000,73.00006104
2136,96.00000000,72.00036622
2137,96.00000000,71.00067141
2138,96.00000000,71.00067141
2139,95.00003052,71.00067141
2140,95.00003052,73.00006104
2141,95.00003052,75.00038148
2142,95.00003052,75.00038148
2143,95.00003052,75.00038148
2144,94.00006104,75.00038148
2145,94.00006104,74.00068667
2146,94.00006104,74.00068667
2147,94.00006104,74.00068667
2148,94.00006104,73.00006104
2149,94.00006104,73.00006104
2150,94.00006104,74.00068667
2151,94.00006104,74.00068667
2152,94.00006104,75.00038148
2153,94.00006104,75.00038148
2154,94.00006104,78.00039674
2155,94.00006104,80.00071719
2156,94.00006104,80.00071719
2157,94.00006104,82.00010681
2158,94.00006104,82.00010681
2159,94.00006104,80.00071719
2160,94.00006104,79.00009156
2161,94.00006104,78.00039674
2162,94.00006104,77.00070193
2163,94.00006104,75.00038148
2164,94.00006104,75.00038148
2165,95.00003052,74.00068667
2166,95.00003052,74.00068667
2167,95.00003052,73.00006104
2168,95.00003052,74.00068667
2169,95.00003052,74.00068667
2170,95.00003052,74.00068667
2171,95.00003052,74.00068667
2172,95.00003052,72.00036622
2173,94.00006104,71.00067141
2174,94.00006104,71.00067141
2175,94.00006104,71.00067141
2176,94.00006104,71.00067141
2177,94.00006104,71.00067141
2178,94.00006104,71.00067141
2179,94.00006104,71.00067141
2180,94.00006104,71.00067141
2181,95.00003052,72.00036622
2182,95.00003052,72.00036622
2183,95.00003052,71.00067141
2184,95.00003052,71.00067141
2185,95.00003052,72.00036622
2186,96.00000000,72.00036622
2187,96.00000000,72.00036622
2188,96.00000000,72.00036622
2189,96.00000000,73.00006104
2190,96.00000000,73.00006104
2191,96.99996948,73.00006104
2192,96.99996948,73.00006104
2193,96.99996948,72.00036622
2194,96.99996948,72.00036622
2195,96.99996948,72.00036622
2196,96.99996948,72.00036622
2197,96.99996948,73.00006104
2198,96.00000000,73.00006104
2199,96.00000000,73.00006104
2200,96.00000000,73.00006104
2201,96.00000000,72.00036622
2202,96.00000000,71.00067141
2203,96.00000000,71.00067141
2204,96.00000000,71.00067141
2205,96.00000000,71.00067141
2206,96.00000000,71.00067141
2207,96.00000000,72.00036622
2208,95.00003052,72.00036622
2209,95.00003052,73.00006104
2210,95.00003052,74.00068667
2211,95.00003052,75.00038148
2212,95.00003052,75.00038148
2213,95.00003052,75.00038148
2214,95.00003052,75.00038148
2215,95.00003052,74.00068667
2216,95.00003052,74.00068667
2217,94.00006104,74.00068667
2218,94.00006104,75.00038148
2219,94.00006104,75.00038148
2220,94.00006104,75.00038148
2221,94.00006104,76.00007630
2222,94.00006104,77.00070193
2223,94.00006104,77.00070193
2224,94.00006104,77.00070193
2225,94.00006104,77.00070193
2226,93.00000000,76.00007630
2227,93.00000000,76.00007630
2228,93.00000000,76.00007630
2229,94.00006104,76.00007630
2230,94.00006104,76.00007630
2231,94.00006104,76.00007630
2232,94.00006104,77.00070193
2233,94.00006104,77.00070193
2234,94.00006104,77.00070193
2235,94.00006104,78.00039674
2236,95.00003052,78.00039674
2237,95.00003052,79.00009156
2238,95.00003052,81.00041200
2239,95.00003052,82.00010681
2240,95.00003052,80.00071719
2241,95.00003052,79.00009156
2242,96.00000000,78.00039674
2243,96.00000000,76.00007630
2244,96.00000000,75.00038148
2245,96.00000000,75.00038148
2246,96.00000000,75.00038148
2247,96.00000000,75.00038148
2248,96.00000000,75.00038148
2249,96.00000000,75.00038148
2250,95.00003052,75.00038148
2251,95.00003052,75.00038148
2252,95.00003052,75.00038148
2253,95.00003052,75.00038148
2254,95.00003052,74.00068667
2255,95.00003052,74.00068667
2256,95.00003052,73.00006104
2257,95.00003052,73.00006104
2258,95.00003052,73.00006104
2259,95.00003052,74.00068667
2260,95.00003052,75.00038148
2261,95.00003052,75.00038148
2262,95.00003052,76.00007630
2263,95.00003052,76.00007630
2264,95.00003052,76.00007630
2265,95.00003052,76.00007630
2266,95.00003052,75.00038148
2267,95.00003052,75.00038148
2268,95.00003052,76.00007630
2269,95.00003052,76.00007630
2270,95.00003052,76.00007630
2271,94.00006104,77.00070193
2272,94.00006104,77.00070193
2273,94.00006104,77.00070193
2274,94.00006104,77.00070193
2275,94.00006104,76.00007630
2276,94.00006104,75.00038148
2277,94.00006104,75.00038148
2278,94.00006104,75.00038148
2279,94.00006104,75.00038148
2280,94.00006104,75.00038148
2281,94.00006104,76.00007630
2282,94.00006104,76.00007630
2283,94.00006104,76.00007630
2284,94.00006104,76.00007630
2285,94.00006104,76.00007630
2286,95.00003052,75.00038148
2287,95.00003052,75.00038148
2288,94.00006104,75.00038148
2289,94.00006104,78.00039674
2290,94.00006104,78.00039674
2291,94.00006104,80.00071719
2292,94.00006104,80.00071719
2293,94.00006104,78.00039674
2294,94.00006104,77.00070193
2295,94.00006104,76.00007630
2296,94.00006104,76.00007630
2297,95.00003052,75.00038148
2298,95.00003052,74.00068667
